Wavelength (Angstroms) Flux (erg/s/cm2/A)
# start
3400.00 0
3401.50 0
3403.00 0
3404.50 0
3406.00 0
3407.50 0
3409.00 0
3410.50 0
3412.00 0
3413.50 0
3415.00 0
3416.50 0
3418.00 0
3419.50 0
3421.00 0
3422.50 0
3424.00 0
3425.50 0
3427.00 0
3428.50 0
3430.00 0
3431.50 0
3433.00 0
3434.50 0
3436.00 0
3437.50 0
3439.00 0
3440.50 0
3442.00 0
3443.50 0
3445.00 0
3446.50 0
3448.00 0
3449.50 0
3451.00 0
3452.50 0
3454.00 0
3455.50 0
3457.00 0
3458.50 0
3460.00 0
3461.50 0
3463.00 0
3464.50 0
3466.00 0
3467.50 0
3469.00 0
3470.50 0
3472.00 0
3473.50 0
3475.00 0
3476.50 0
3478.00 0
3479.50 0
3481.00 0
3482.50 0
3484.00 0
3485.50 0
3487.00 0
3488.50 0
3490.00 0
3491.50 0
3493.00 0
3494.50 0
3496.00 0
3497.50 0
3499.00 0
3500.50 0
3502.00 0
3503.50 0
3505.00 0
3506.50 0
3508.00 0
3509.50 0
3511.00 0
3512.50 0
3514.00 0
3515.50 0
3517.00 0
3518.50 0
3520.00 0
3521.50 0
3523.00 0
3524.50 0
3526.00 0
3527.50 0
3529.00 0
3530.50 0
3532.00 0
3533.50 0
3535.00 0
3536.50 0
3538.00 0
3539.50 0
3541.00 0
3542.50 0
3544.00 0
3545.50 0
3547.00 0
3548.50 0
3550.00 0
3551.50 0
3553.00 0
3554.50 0
3556.00 0
3557.50 0
3559.00 0
3560.50 0
3562.00 0
3563.50 0
3565.00 0
3566.50 0
3568.00 0
3569.50 0
3571.00 0
3572.50 0
3574.00 0
3575.50 0
3577.00 0
3578.50 0
3580.00 0
3581.50 0
3583.00 0
3584.50 0
3586.00 0
3587.50 0
3589.00 0
3590.50 0
3592.00 0
3593.50 0
3595.00 0
3596.50 0
3598.00 0
3599.50 0
3601.00 0
3602.50 0
3604.00 0
3605.50 0
3607.00 0
3608.50 0
3610.00 0
3611.50 0
3613.00 0
3614.50 0
3616.00 0
3617.50 0
3619.00 0
3620.50 0
3622.00 0
3623.50 0
3625.00 0
3626.50 0
3628.00 0
3629.50 0
3631.00 0
3632.50 0
3634.00 0
3635.50 0
3637.00 0
3638.50 0
3640.00 0
3641.50 0
3643.00 0
3644.50 0
3646.00 0
3647.50 0
3649.00 0
3650.50 0
3652.00 0
3653.50 0
3655.00 0
3656.50 0
3658.00 0
3659.50 0
3661.00 0
3662.50 0
3664.00 0
3665.50 0
3667.00 0
3668.50 0
3670.00 0
3671.50 0
3673.00 0
3674.50 0
3676.00 0
3677.50 0
3679.00 0
3680.50 0
3682.00 0
3683.50 0
3685.00 0
3686.50 0
3688.00 0
3689.50 0
3691.00 0
3692.50 0
3694.00 0
3695.50 0
3697.00 0
3698.50 0
3700.00 0
3701.50 0
3703.00 0
3704.50 0
3706.00 0
3707.50 0
3709.00 0
3710.50 0
3712.00 0
3713.50 0
3715.00 0
3716.50 0
3718.00 0
3719.50 0
3721.00 0
3722.50 0
3724.00 0
3725.50 0
3727.00 0
3728.50 0
3730.00 0
3731.50 0
3733.00 0
3734.50 0
3736.00 0
3737.50 0
3739.00 0
3740.50 0
3742.00 0
3743.50 0
3745.00 0
3746.50 0
3748.00 0
3749.50 0
3751.00 0
3752.50 0
3754.00 0
3755.50 0
3757.00 0
3758.50 0
3760.00 0
3761.50 0
3763.00 0
3764.50 0
3766.00 0
3767.50 0
3769.00 0
3770.50 0
3772.00 0
3773.50 0
3775.00 0
3776.50 0
3778.00 0
3779.50 0
3781.00 0
3782.50 0
3784.00 0
3785.50 0
3787.00 0
3788.50 0
3790.00 0
3791.50 0
3793.00 0
3794.50 0
3796.00 0
3797.50 0
3799.00 1.8863e-16 
3800.50 1.8293e-16 
3802.00 1.5219e-16 
3803.50 1.7165e-16 
3805.00 1.1556e-16 
3806.50 9.9322e-17 
3808.00 1.0744e-16 
3809.50 2.2784e-16 
3811.00 1.8697e-16 
3812.50 1.1602e-16 
3814.00 7.1164e-17 
3815.50 1.6526e-16 
3817.00 2.0591e-16 
3818.50 2.1989e-16 
3820.00 1.9583e-16 
3821.50 2.0264e-16 
3823.00 2.4926e-16 
3824.50 2.1656e-16 
3826.00 2.2040e-16 
3827.50 1.4579e-16 
3829.00 2.1024e-16 
3830.50 2.5926e-16 
3832.00 2.2173e-16 
3833.50 2.3835e-16 
3835.00 2.3586e-16 
3836.50 1.8055e-16 
3838.00 2.0521e-16 
3839.50 1.7993e-16 
3841.00 2.4395e-16 
3842.50 2.0874e-16 
3844.00 2.2530e-16 
3845.50 1.7008e-16 
3847.00 1.7308e-16 
3848.50 1.8510e-16 
3850.00 1.9434e-16 
3851.50 1.9757e-16 
3853.00 2.0043e-16 
3854.50 2.0504e-16 
3856.00 2.4242e-16 
3857.50 2.1578e-16 
3859.00 1.8388e-16 
3860.50 2.3730e-16 
3862.00 1.6821e-16 
3863.50 1.6386e-16 
3865.00 1.5937e-16 
3866.50 1.5762e-16 
3868.00 1.7024e-16 
3869.50 1.5003e-16 
3871.00 1.4815e-16 
3872.50 1.5311e-16 
3874.00 1.7066e-16 
3875.50 1.8925e-16 
3877.00 2.1810e-16 
3878.50 1.9965e-16 
3880.00 2.0444e-16 
3881.50 1.9949e-16 
3883.00 2.2334e-16 
3884.50 1.5628e-16 
3886.00 1.9389e-16 
3887.50 1.9431e-16 
3889.00 1.5280e-16 
3890.50 1.7942e-16 
3892.00 1.9873e-16 
3893.50 2.1032e-16 
3895.00 2.0555e-16 
3896.50 1.8144e-16 
3898.00 1.8045e-16 
3899.50 1.1799e-16 
3901.00 1.6723e-16 
3902.50 2.1419e-16 
3904.00 1.5698e-16 
3905.50 1.4787e-16 
3907.00 1.9702e-16 
3908.50 2.4852e-16 
3910.00 1.7179e-16 
3911.50 1.4747e-16 
3913.00 1.5682e-16 
3914.50 1.0117e-16 
3916.00 1.3852e-16 
3917.50 1.5974e-16 
3919.00 1.6592e-16 
3920.50 2.1395e-16 
3922.00 2.1235e-16 
3923.50 2.0708e-16 
3925.00 1.9813e-16 
3926.50 2.0434e-16 
3928.00 1.8800e-16 
3929.50 1.7494e-16 
3931.00 2.0867e-16 
3932.50 1.9270e-16 
3934.00 1.6429e-16 
3935.50 1.6978e-16 
3937.00 1.5797e-16 
3938.50 1.1851e-16 
3940.00 1.4023e-16 
3941.50 1.5992e-16 
3943.00 1.6921e-16 
3944.50 1.7493e-16 
3946.00 1.8551e-16 
3947.50 1.6447e-16 
3949.00 1.9201e-16 
3950.50 1.9151e-16 
3952.00 1.8040e-16 
3953.50 1.9164e-16 
3955.00 1.4221e-16 
3956.50 1.7803e-16 
3958.00 1.6330e-16 
3959.50 2.0173e-16 
3961.00 1.7744e-16 
3962.50 2.2261e-16 
3964.00 1.7249e-16 
3965.50 1.2949e-16 
3967.00 1.9716e-16 
3968.50 1.3846e-16 
3970.00 1.7885e-16 
3971.50 1.4440e-16 
3973.00 1.9436e-16 
3974.50 1.8718e-16 
3976.00 1.5411e-16 
3977.50 1.6303e-16 
3979.00 1.6196e-16 
3980.50 1.6059e-16 
3982.00 1.4340e-16 
3983.50 1.7551e-16 
3985.00 1.7075e-16 
3986.50 1.9610e-16 
3988.00 1.7875e-16 
3989.50 1.6801e-16 
3991.00 1.8439e-16 
3992.50 1.8291e-16 
3994.00 1.5841e-16 
3995.50 1.6053e-16 
3997.00 1.8963e-16 
3998.50 1.7948e-16 
4000.00 1.6008e-16 
4001.50 1.5609e-16 
4003.00 1.7744e-16 
4004.50 1.8380e-16 
4006.00 1.8400e-16 
4007.50 1.8954e-16 
4009.00 1.4513e-16 
4010.50 1.3559e-16 
4012.00 1.7128e-16 
4013.50 1.4782e-16 
4015.00 1.8784e-16 
4016.50 2.0423e-16 
4018.00 1.9260e-16 
4019.50 2.2068e-16 
4021.00 1.6969e-16 
4022.50 1.7696e-16 
4024.00 1.7879e-16 
4025.50 2.1470e-16 
4027.00 1.8813e-16 
4028.50 1.7882e-16 
4030.00 1.7825e-16 
4031.50 1.5916e-16 
4033.00 1.7901e-16 
4034.50 1.8230e-16 
4036.00 1.3419e-16 
4037.50 1.5796e-16 
4039.00 1.9142e-16 
4040.50 2.0566e-16 
4042.00 1.8241e-16 
4043.50 1.5634e-16 
4045.00 1.5784e-16 
4046.50 1.7951e-16 
4048.00 1.6649e-16 
4049.50 1.8289e-16 
4051.00 1.5887e-16 
4052.50 1.8185e-16 
4054.00 1.8079e-16 
4055.50 1.9410e-16 
4057.00 1.7011e-16 
4058.50 1.8753e-16 
4060.00 1.5076e-16 
4061.50 1.5530e-16 
4063.00 2.0459e-16 
4064.50 2.1258e-16 
4066.00 2.0549e-16 
4067.50 2.1642e-16 
4069.00 2.0271e-16 
4070.50 1.7380e-16 
4072.00 1.8165e-16 
4073.50 1.9738e-16 
4075.00 1.8411e-16 
4076.50 1.6074e-16 
4078.00 1.7811e-16 
4079.50 2.0609e-16 
4081.00 1.8449e-16 
4082.50 1.8800e-16 
4084.00 1.7226e-16 
4085.50 1.7376e-16 
4087.00 1.9868e-16 
4088.50 1.7972e-16 
4090.00 1.2612e-16 
4091.50 1.1620e-16 
4093.00 1.5084e-16 
4094.50 1.7410e-16 
4096.00 1.8634e-16 
4097.50 1.9020e-16 
4099.00 1.8276e-16 
4100.50 2.0078e-16 
4102.00 1.9162e-16 
4103.50 2.1297e-16 
4105.00 1.9987e-16 
4106.50 1.8200e-16 
4108.00 1.6121e-16 
4109.50 1.9427e-16 
4111.00 2.0413e-16 
4112.50 1.5684e-16 
4114.00 1.9405e-16 
4115.50 2.0401e-16 
4117.00 1.7741e-16 
4118.50 1.7023e-16 
4120.00 1.9791e-16 
4121.50 1.6743e-16 
4123.00 1.4907e-16 
4124.50 1.9815e-16 
4126.00 2.1048e-16 
4127.50 1.9997e-16 
4129.00 1.9200e-16 
4130.50 1.8899e-16 
4132.00 2.0168e-16 
4133.50 1.7809e-16 
4135.00 1.8236e-16 
4136.50 1.9180e-16 
4138.00 1.8236e-16 
4139.50 1.7655e-16 
4141.00 1.5045e-16 
4142.50 1.4946e-16 
4144.00 1.7157e-16 
4145.50 1.7263e-16 
4147.00 1.8366e-16 
4148.50 1.6482e-16 
4150.00 1.6456e-16 
4151.50 1.7965e-16 
4153.00 1.9309e-16 
4154.50 1.7524e-16 
4156.00 1.8526e-16 
4157.50 1.7113e-16 
4159.00 1.7705e-16 
4160.50 1.6239e-16 
4162.00 1.7559e-16 
4163.50 1.6914e-16 
4165.00 1.8695e-16 
4166.50 1.6724e-16 
4168.00 1.5969e-16 
4169.50 1.7132e-16 
4171.00 1.5019e-16 
4172.50 1.7021e-16 
4174.00 1.6880e-16 
4175.50 1.9379e-16 
4177.00 1.6585e-16 
4178.50 1.3058e-16 
4180.00 1.6202e-16 
4181.50 1.4828e-16 
4183.00 1.7826e-16 
4184.50 1.7400e-16 
4186.00 1.6377e-16 
4187.50 1.8784e-16 
4189.00 1.5062e-16 
4190.50 1.9759e-16 
4192.00 1.7210e-16 
4193.50 1.6651e-16 
4195.00 1.8094e-16 
4196.50 1.8231e-16 
4198.00 1.2750e-16 
4199.50 1.5417e-16 
4201.00 1.4877e-16 
4202.50 1.6690e-16 
4204.00 1.6523e-16 
4205.50 1.6921e-16 
4207.00 1.4904e-16 
4208.50 1.6924e-16 
4210.00 1.6203e-16 
4211.50 1.4909e-16 
4213.00 1.5529e-16 
4214.50 1.6999e-16 
4216.00 1.4060e-16 
4217.50 1.6414e-16 
4219.00 1.7158e-16 
4220.50 1.5662e-16 
4222.00 1.7044e-16 
4223.50 1.4475e-16 
4225.00 1.5562e-16 
4226.50 1.5339e-16 
4228.00 1.7052e-16 
4229.50 1.5722e-16 
4231.00 1.5250e-16 
4232.50 1.8217e-16 
4234.00 1.4933e-16 
4235.50 1.5237e-16 
4237.00 1.4373e-16 
4238.50 1.5189e-16 
4240.00 1.4843e-16 
4241.50 1.6695e-16 
4243.00 1.4288e-16 
4244.50 1.8642e-16 
4246.00 1.5747e-16 
4247.50 1.5516e-16 
4249.00 1.4407e-16 
4250.50 1.3873e-16 
4252.00 1.4300e-16 
4253.50 1.3602e-16 
4255.00 1.3880e-16 
4256.50 1.5540e-16 
4258.00 1.5012e-16 
4259.50 1.6174e-16 
4261.00 1.4461e-16 
4262.50 1.6093e-16 
4264.00 1.7270e-16 
4265.50 1.4745e-16 
4267.00 1.4376e-16 
4268.50 1.4959e-16 
4270.00 1.4521e-16 
4271.50 1.4330e-16 
4273.00 1.6030e-16 
4274.50 1.5947e-16 
4276.00 1.4849e-16 
4277.50 1.4968e-16 
4279.00 1.5089e-16 
4280.50 1.6421e-16 
4282.00 1.6110e-16 
4283.50 1.5558e-16 
4285.00 1.3187e-16 
4286.50 1.0748e-16 
4288.00 1.0073e-16 
4289.50 1.2384e-16 
4291.00 1.5551e-16 
4292.50 1.6318e-16 
4294.00 1.4509e-16 
4295.50 1.5682e-16 
4297.00 1.6368e-16 
4298.50 1.5814e-16 
4300.00 1.4873e-16 
4301.50 1.3567e-16 
4303.00 1.4383e-16 
4304.50 1.5040e-16 
4306.00 1.4513e-16 
4307.50 1.3599e-16 
4309.00 1.5237e-16 
4310.50 1.5278e-16 
4312.00 1.2899e-16 
4313.50 1.7690e-16 
4315.00 1.4606e-16 
4316.50 1.4646e-16 
4318.00 1.2631e-16 
4319.50 1.3631e-16 
4321.00 1.4560e-16 
4322.50 1.6241e-16 
4324.00 1.7050e-16 
4325.50 1.6087e-16 
4327.00 1.5392e-16 
4328.50 1.2786e-16 
4330.00 1.3498e-16 
4331.50 1.7280e-16 
4333.00 1.5077e-16 
4334.50 1.4954e-16 
4336.00 1.2411e-16 
4337.50 1.3837e-16 
4339.00 1.6173e-16 
4340.50 1.3743e-16 
4342.00 1.5065e-16 
4343.50 1.5777e-16 
4345.00 1.4628e-16 
4346.50 1.1872e-16 
4348.00 7.2721e-17 
4349.50 7.4803e-17 
4351.00 1.2276e-16 
4352.50 1.4016e-16 
4354.00 1.3301e-16 
4355.50 6.6726e-17 
4357.00 1.0335e-16 
4358.50 1.2836e-16 
4360.00 1.3925e-16 
4361.50 1.6357e-16 
4363.00 1.3112e-16 
4364.50 1.5564e-16 
4366.00 1.4821e-16 
4367.50 1.4608e-16 
4369.00 1.6736e-16 
4370.50 1.4329e-16 
4372.00 1.4031e-16 
4373.50 1.7099e-16 
4375.00 1.6925e-16 
4376.50 1.5500e-16 
4378.00 1.5208e-16 
4379.50 1.5719e-16 
4381.00 1.2781e-16 
4382.50 1.5341e-16 
4384.00 1.6776e-16 
4385.50 1.7141e-16 
4387.00 1.7243e-16 
4388.50 1.6385e-16 
4390.00 1.4792e-16 
4391.50 1.5130e-16 
4393.00 1.4611e-16 
4394.50 1.5679e-16 
4396.00 1.6408e-16 
4397.50 1.6704e-16 
4399.00 1.5011e-16 
4400.50 1.3427e-16 
4402.00 1.7033e-16 
4403.50 1.4055e-16 
4405.00 1.5291e-16 
4406.50 1.5692e-16 
4408.00 1.6841e-16 
4409.50 1.7804e-16 
4411.00 1.7040e-16 
4412.50 1.4089e-16 
4414.00 1.3434e-16 
4415.50 1.4761e-16 
4417.00 1.4521e-16 
4418.50 1.3860e-16 
4420.00 1.5324e-16 
4421.50 1.3816e-16 
4423.00 1.4308e-16 
4424.50 1.3994e-16 
4426.00 1.4991e-16 
4427.50 1.5669e-16 
4429.00 1.4561e-16 
4430.50 1.5583e-16 
4432.00 1.4499e-16 
4433.50 1.4320e-16 
4435.00 1.4531e-16 
4436.50 1.5835e-16 
4438.00 1.4022e-16 
4439.50 1.3722e-16 
4441.00 1.4308e-16 
4442.50 1.5568e-16 
4444.00 1.7783e-16 
4445.50 1.5234e-16 
4447.00 1.3520e-16 
4448.50 1.6127e-16 
4450.00 1.7546e-16 
4451.50 1.3908e-16 
4453.00 1.4875e-16 
4454.50 1.3355e-16 
4456.00 1.4043e-16 
4457.50 1.4984e-16 
4459.00 1.4368e-16 
4460.50 1.4218e-16 
4462.00 1.3352e-16 
4463.50 1.1525e-16 
4465.00 9.3050e-17 
4466.50 9.8526e-17 
4468.00 1.4825e-16 
4469.50 1.5929e-16 
4471.00 1.6106e-16 
4472.50 1.3977e-16 
4474.00 1.2750e-16 
4475.50 1.4127e-16 
4477.00 1.7287e-16 
4478.50 1.6722e-16 
4480.00 1.7033e-16 
4481.50 1.6916e-16 
4483.00 1.7233e-16 
4484.50 1.6522e-16 
4486.00 1.7836e-16 
4487.50 1.6810e-16 
4489.00 1.7334e-16 
4490.50 1.8002e-16 
4492.00 1.7178e-16 
4493.50 1.7825e-16 
4495.00 1.7439e-16 
4496.50 1.6876e-16 
4498.00 1.9140e-16 
4499.50 1.8340e-16 
4501.00 1.9608e-16 
4502.50 2.0394e-16 
4504.00 1.8055e-16 
4505.50 1.7651e-16 
4507.00 1.9724e-16 
4508.50 2.0744e-16 
4510.00 2.0618e-16 
4511.50 2.0435e-16 
4513.00 2.1082e-16 
4514.50 2.1026e-16 
4516.00 1.9961e-16 
4517.50 1.8647e-16 
4519.00 1.8727e-16 
4520.50 1.9419e-16 
4522.00 2.0527e-16 
4523.50 2.0364e-16 
4525.00 2.0417e-16 
4526.50 2.1160e-16 
4528.00 1.7783e-16 
4529.50 1.9992e-16 
4531.00 2.0017e-16 
4532.50 2.0190e-16 
4534.00 2.0326e-16 
4535.50 2.1429e-16 
4537.00 2.1814e-16 
4538.50 2.2106e-16 
4540.00 2.1531e-16 
4541.50 1.8511e-16 
4543.00 9.7248e-17 
4544.50 3.9621e-17 
4546.00 3.8261e-17 
4547.50 1.2001e-16 
4549.00 1.5022e-16 
4550.50 1.0350e-16 
4552.00 6.9926e-17 
4553.50 6.7607e-17 
4555.00 1.3294e-16 
4556.50 1.9536e-16 
4558.00 1.9862e-16 
4559.50 1.9658e-16 
4561.00 1.8587e-16 
4562.50 1.7759e-16 
4564.00 1.8056e-16 
4565.50 1.7962e-16 
4567.00 1.8592e-16 
4568.50 1.9780e-16 
4570.00 1.7264e-16 
4571.50 1.7932e-16 
4573.00 1.8253e-16 
4574.50 1.6919e-16 
4576.00 1.6643e-16 
4577.50 1.7213e-16 
4579.00 1.9084e-16 
4580.50 1.7799e-16 
4582.00 1.8616e-16 
4583.50 1.9239e-16 
4585.00 1.8590e-16 
4586.50 1.7639e-16 
4588.00 1.9860e-16 
4589.50 1.6172e-16 
4591.00 1.8064e-16 
4592.50 1.6604e-16 
4594.00 1.7582e-16 
4595.50 1.7891e-16 
4597.00 1.7328e-16 
4598.50 1.7311e-16 
4600.00 1.8031e-16 
4601.50 1.6878e-16 
4603.00 1.6491e-16 
4604.50 1.6084e-16 
4606.00 1.4392e-16 
4607.50 1.6397e-16 
4609.00 1.7849e-16 
4610.50 1.7687e-16 
4612.00 1.7626e-16 
4613.50 1.6061e-16 
4615.00 1.6347e-16 
4616.50 1.6366e-16 
4618.00 1.5896e-16 
4619.50 1.5763e-16 
4621.00 1.5741e-16 
4622.50 1.6084e-16 
4624.00 1.6559e-16 
4625.50 1.5758e-16 
4627.00 1.5410e-16 
4628.50 1.5805e-16 
4630.00 1.5800e-16 
4631.50 1.3588e-16 
4633.00 1.5388e-16 
4634.50 1.5852e-16 
4636.00 1.6600e-16 
4637.50 1.4816e-16 
4639.00 1.2936e-16 
4640.50 1.4470e-16 
4642.00 1.5366e-16 
4643.50 1.4934e-16 
4645.00 1.5613e-16 
4646.50 1.5375e-16 
4648.00 1.5338e-16 
4649.50 1.4465e-16 
4651.00 1.5944e-16 
4652.50 1.5877e-16 
4654.00 1.2607e-16 
4655.50 1.3203e-16 
4657.00 1.5189e-16 
4658.50 1.4775e-16 
4660.00 1.3601e-16 
4661.50 1.4201e-16 
4663.00 1.5970e-16 
4664.50 1.3278e-16 
4666.00 1.3247e-16 
4667.50 1.6067e-16 
4669.00 1.5314e-16 
4670.50 1.4292e-16 
4672.00 1.4533e-16 
4673.50 1.5948e-16 
4675.00 1.4801e-16 
4676.50 1.3193e-16 
4678.00 1.2863e-16 
4679.50 1.3302e-16 
4681.00 1.3865e-16 
4682.50 1.3849e-16 
4684.00 1.4918e-16 
4685.50 1.3854e-16 
4687.00 1.4601e-16 
4688.50 1.5930e-16 
4690.00 1.3875e-16 
4691.50 1.0821e-16 
4693.00 9.0078e-17 
4694.50 1.1135e-16 
4696.00 1.4690e-16 
4697.50 1.3855e-16 
4699.00 1.3233e-16 
4700.50 1.2409e-16 
4702.00 1.5533e-16 
4703.50 1.4679e-16 
4705.00 1.3451e-16 
4706.50 1.4331e-16 
4708.00 1.4373e-16 
4709.50 1.3876e-16 
4711.00 1.4224e-16 
4712.50 1.4507e-16 
4714.00 1.4742e-16 
4715.50 1.4545e-16 
4717.00 1.3859e-16 
4718.50 1.3256e-16 
4720.00 1.3950e-16 
4721.50 1.3811e-16 
4723.00 1.3460e-16 
4724.50 1.4475e-16 
4726.00 1.4790e-16 
4727.50 1.4813e-16 
4729.00 1.2985e-16 
4730.50 1.2853e-16 
4732.00 1.2069e-16 
4733.50 1.3453e-16 
4735.00 1.4593e-16 
4736.50 1.2301e-16 
4738.00 1.3755e-16 
4739.50 1.4179e-16 
4741.00 1.5049e-16 
4742.50 1.3398e-16 
4744.00 1.3304e-16 
4745.50 1.3835e-16 
4747.00 1.5023e-16 
4748.50 1.3891e-16 
4750.00 1.3436e-16 
4751.50 1.4441e-16 
4753.00 1.4950e-16 
4754.50 1.4389e-16 
4756.00 1.3746e-16 
4757.50 1.4648e-16 
4759.00 1.3601e-16 
4760.50 1.3211e-16 
4762.00 1.3391e-16 
4763.50 1.3397e-16 
4765.00 1.3560e-16 
4766.50 1.3097e-16 
4768.00 1.3181e-16 
4769.50 1.3285e-16 
4771.00 1.4795e-16 
4772.50 1.3584e-16 
4774.00 1.2538e-16 
4775.50 1.3350e-16 
4777.00 1.3666e-16 
4778.50 1.2797e-16 
4780.00 1.3724e-16 
4781.50 1.4868e-16 
4783.00 1.3639e-16 
4784.50 1.4187e-16 
4786.00 1.2748e-16 
4787.50 1.4601e-16 
4789.00 1.4382e-16 
4790.50 1.2608e-16 
4792.00 1.4526e-16 
4793.50 1.5256e-16 
4795.00 1.3783e-16 
4796.50 1.4186e-16 
4798.00 1.3920e-16 
4799.50 1.4258e-16 
4801.00 1.4817e-16 
4802.50 1.2997e-16 
4804.00 1.2179e-16 
4805.50 1.2591e-16 
4807.00 1.2890e-16 
4808.50 1.4706e-16 
4810.00 1.3376e-16 
4811.50 1.4222e-16 
4813.00 1.4383e-16 
4814.50 1.4346e-16 
4816.00 1.3381e-16 
4817.50 1.4772e-16 
4819.00 1.5485e-16 
4820.50 1.3747e-16 
4822.00 1.2014e-16 
4823.50 1.3160e-16 
4825.00 1.5017e-16 
4826.50 1.2877e-16 
4828.00 1.2805e-16 
4829.50 1.3626e-16 
4831.00 1.3261e-16 
4832.50 1.2280e-16 
4834.00 1.1965e-16 
4835.50 1.4360e-16 
4837.00 1.4765e-16 
4838.50 1.4195e-16 
4840.00 1.3420e-16 
4841.50 1.3524e-16 
4843.00 1.3139e-16 
4844.50 1.3451e-16 
4846.00 1.2940e-16 
4847.50 1.4675e-16 
4849.00 1.3415e-16 
4850.50 1.2676e-16 
4852.00 1.2727e-16 
4853.50 1.3248e-16 
4855.00 1.3012e-16 
4856.50 1.3392e-16 
4858.00 1.3279e-16 
4859.50 1.2955e-16 
4861.00 1.3590e-16 
4862.50 1.4929e-16 
4864.00 1.4535e-16 
4865.50 1.4272e-16 
4867.00 1.3224e-16 
4868.50 1.1974e-16 
4870.00 1.2059e-16 
4871.50 1.2512e-16 
4873.00 1.1591e-16 
4874.50 1.3520e-16 
4876.00 1.3286e-16 
4877.50 1.1821e-16 
4879.00 1.1887e-16 
4880.50 1.1730e-16 
4882.00 1.3789e-16 
4883.50 1.3452e-16 
4885.00 1.1629e-16 
4886.50 1.2903e-16 
4888.00 1.3630e-16 
4889.50 1.3427e-16 
4891.00 1.1460e-16 
4892.50 1.4710e-16 
4894.00 1.4007e-16 
4895.50 1.2856e-16 
4897.00 1.3765e-16 
4898.50 1.2070e-16 
4900.00 1.1101e-16 
4901.50 1.2859e-16 
4903.00 1.3146e-16 
4904.50 1.2493e-16 
4906.00 1.2959e-16 
4907.50 1.2891e-16 
4909.00 1.2401e-16 
4910.50 1.2717e-16 
4912.00 1.3971e-16 
4913.50 1.2360e-16 
4915.00 1.2537e-16 
4916.50 1.2763e-16 
4918.00 1.2501e-16 
4919.50 1.4229e-16 
4921.00 1.2064e-16 
4922.50 1.2888e-16 
4924.00 1.2638e-16 
4925.50 1.3204e-16 
4927.00 1.1464e-16 
4928.50 1.2217e-16 
4930.00 1.1388e-16 
4931.50 1.2216e-16 
4933.00 1.1600e-16 
4934.50 1.2482e-16 
4936.00 1.2190e-16 
4937.50 1.2575e-16 
4939.00 1.1809e-16 
4940.50 1.1898e-16 
4942.00 1.2642e-16 
4943.50 1.2384e-16 
4945.00 1.2446e-16 
4946.50 1.2892e-16 
4948.00 1.2814e-16 
4949.50 1.4797e-16 
4951.00 1.4602e-16 
4952.50 1.4485e-16 
4954.00 1.3231e-16 
4955.50 1.3027e-16 
4957.00 1.2092e-16 
4958.50 1.1048e-16 
4960.00 1.0757e-16 
4961.50 1.3491e-16 
4963.00 1.3231e-16 
4964.50 1.2294e-16 
4966.00 1.2254e-16 
4967.50 1.2278e-16 
4969.00 1.2445e-16 
4970.50 1.2869e-16 
4972.00 1.2960e-16 
4973.50 1.2660e-16 
4975.00 1.2806e-16 
4976.50 1.0654e-16 
4978.00 1.0690e-16 
4979.50 1.1671e-16 
4981.00 1.2774e-16 
4982.50 1.2327e-16 
4984.00 1.2390e-16 
4985.50 1.2683e-16 
4987.00 1.0682e-16 
4988.50 1.1553e-16 
4990.00 1.1264e-16 
4991.50 1.2998e-16 
4993.00 1.2373e-16 
4994.50 1.2012e-16 
4996.00 1.2787e-16 
4997.50 1.1655e-16 
4999.00 1.3716e-16 
5000.50 1.2779e-16 
5002.00 1.0705e-16 
5003.50 9.8643e-17 
5005.00 1.2634e-16 
5006.50 1.2841e-16 
5008.00 1.2025e-16 
5009.50 1.1848e-16 
5011.00 1.2119e-16 
5012.50 1.2991e-16 
5014.00 1.2821e-16 
5015.50 1.2739e-16 
5017.00 1.1612e-16 
5018.50 1.1673e-16 
5020.00 1.0626e-16 
5021.50 1.1908e-16 
5023.00 1.2184e-16 
5024.50 1.2795e-16 
5026.00 1.1808e-16 
5027.50 1.1038e-16 
5029.00 1.3039e-16 
5030.50 1.2685e-16 
5032.00 1.2915e-16 
5033.50 1.2844e-16 
5035.00 1.2531e-16 
5036.50 1.2698e-16 
5038.00 1.2222e-16 
5039.50 1.2955e-16 
5041.00 1.2956e-16 
5042.50 1.2447e-16 
5044.00 1.2154e-16 
5045.50 1.1294e-16 
5047.00 1.2266e-16 
5048.50 1.2280e-16 
5050.00 1.2272e-16 
5051.50 1.0927e-16 
5053.00 1.2025e-16 
5054.50 1.3167e-16 
5056.00 1.4590e-16 
5057.50 1.2960e-16 
5059.00 1.3593e-16 
5060.50 1.1598e-16 
5062.00 1.1445e-16 
5063.50 1.3331e-16 
5065.00 1.2919e-16 
5066.50 1.3038e-16 
5068.00 1.2035e-16 
5069.50 1.3045e-16 
5071.00 1.0976e-16 
5072.50 1.1668e-16 
5074.00 1.3053e-16 
5075.50 1.3317e-16 
5077.00 1.3108e-16 
5078.50 1.2258e-16 
5080.00 1.1623e-16 
5081.50 1.4292e-16 
5083.00 1.2620e-16 
5084.50 1.2071e-16 
5086.00 1.3054e-16 
5087.50 1.1624e-16 
5089.00 1.2781e-16 
5090.50 1.2655e-16 
5092.00 1.3547e-16 
5093.50 1.0642e-16 
