Wavelength (Angstroms) Flux (erg/s/cm2/A)
# start
3400.00 0
3401.50 0
3403.00 0
3404.50 0
3406.00 0
3407.50 0
3409.00 0
3410.50 0
3412.00 0
3413.50 0
3415.00 0
3416.50 0
3418.00 0
3419.50 0
3421.00 0
3422.50 0
3424.00 0
3425.50 0
3427.00 0
3428.50 0
3430.00 0
3431.50 0
3433.00 0
3434.50 0
3436.00 0
3437.50 0
3439.00 0
3440.50 0
3442.00 0
3443.50 0
3445.00 0
3446.50 0
3448.00 0
3449.50 0
3451.00 0
3452.50 0
3454.00 0
3455.50 0
3457.00 0
3458.50 0
3460.00 0
3461.50 0
3463.00 0
3464.50 0
3466.00 0
3467.50 0
3469.00 0
3470.50 0
3472.00 0
3473.50 0
3475.00 0
3476.50 0
3478.00 0
3479.50 0
3481.00 0
3482.50 0
3484.00 0
3485.50 0
3487.00 0
3488.50 0
3490.00 0
3491.50 0
3493.00 0
3494.50 0
3496.00 0
3497.50 0
3499.00 0
3500.50 0
3502.00 0
3503.50 0
3505.00 0
3506.50 0
3508.00 0
3509.50 0
3511.00 0
3512.50 0
3514.00 0
3515.50 0
3517.00 0
3518.50 0
3520.00 0
3521.50 0
3523.00 0
3524.50 0
3526.00 0
3527.50 0
3529.00 0
3530.50 0
3532.00 0
3533.50 0
3535.00 0
3536.50 0
3538.00 0
3539.50 0
3541.00 0
3542.50 0
3544.00 0
3545.50 0
3547.00 0
3548.50 0
3550.00 0
3551.50 0
3553.00 0
3554.50 0
3556.00 0
3557.50 0
3559.00 0
3560.50 0
3562.00 0
3563.50 0
3565.00 0
3566.50 0
3568.00 0
3569.50 0
3571.00 0
3572.50 0
3574.00 0
3575.50 0
3577.00 0
3578.50 0
3580.00 0
3581.50 0
3583.00 0
3584.50 0
3586.00 0
3587.50 0
3589.00 0
3590.50 0
3592.00 0
3593.50 0
3595.00 0
3596.50 0
3598.00 0
3599.50 0
3601.00 7.4374e-17 
3602.50 1.2217e-16 
3604.00 1.0649e-16 
3605.50 1.1211e-16 
3607.00 1.0618e-16 
3608.50 8.4864e-17 
3610.00 1.1890e-16 
3611.50 1.1097e-16 
3613.00 1.3300e-16 
3614.50 1.4788e-16 
3616.00 6.8963e-17 
3617.50 5.2435e-17 
3619.00 7.4552e-17 
3620.50 1.1463e-16 
3622.00 9.6613e-17 
3623.50 8.1754e-17 
3625.00 3.7322e-17 
3626.50 3.1048e-17 
3628.00 1.9899e-17 
3629.50 1.0338e-16 
3631.00 1.3171e-16 
3632.50 8.5334e-17 
3634.00 1.0928e-16 
3635.50 1.1371e-16 
3637.00 1.1423e-16 
3638.50 8.5410e-17 
3640.00 7.6517e-17 
3641.50 1.0135e-16 
3643.00 1.0984e-16 
3644.50 6.9057e-17 
3646.00 7.7881e-17 
3647.50 9.4464e-17 
3649.00 7.4346e-17 
3650.50 5.7893e-17 
3652.00 4.8958e-17 
3653.50 1.1796e-17 
3655.00 4.5529e-17 
3656.50 6.7541e-17 
3658.00 1.0775e-16 
3659.50 8.0946e-17 
3661.00 6.9995e-17 
3662.50 6.2026e-17 
3664.00 6.9613e-17 
3665.50 8.8906e-17 
3667.00 9.6308e-17 
3668.50 8.6015e-17 
3670.00 7.1741e-17 
3671.50 6.6098e-17 
3673.00 8.7706e-17 
3674.50 9.0992e-17 
3676.00 7.6334e-17 
3677.50 9.4559e-17 
3679.00 5.8698e-17 
3680.50 6.8970e-17 
3682.00 6.7889e-17 
3683.50 4.1403e-17 
3685.00 5.5373e-17 
3686.50 5.8300e-17 
3688.00 8.7743e-17 
3689.50 5.3657e-17 
3691.00 7.2448e-17 
3692.50 6.5144e-17 
3694.00 8.9250e-17 
3695.50 6.5375e-17 
3697.00 1.3856e-17 
3698.50 5.0313e-17 
3700.00 7.3095e-17 
3701.50 7.3001e-17 
3703.00 7.1420e-17 
3704.50 8.3621e-17 
3706.00 6.2964e-17 
3707.50 7.9132e-17 
3709.00 7.7507e-17 
3710.50 6.5321e-17 
3712.00 7.4805e-17 
3713.50 7.9842e-17 
3715.00 8.9532e-17 
3716.50 7.7230e-17 
3718.00 6.3449e-17 
3719.50 7.8619e-17 
3721.00 8.8730e-17 
3722.50 6.6081e-17 
3724.00 6.6569e-17 
3725.50 5.0447e-17 
3727.00 6.2337e-17 
3728.50 4.5457e-17 
3730.00 7.3154e-17 
3731.50 9.3979e-17 
3733.00 7.7980e-17 
3734.50 1.1306e-16 
3736.00 1.0092e-16 
3737.50 8.4058e-17 
3739.00 6.7184e-17 
3740.50 8.4254e-17 
3742.00 8.6499e-17 
3743.50 7.6986e-17 
3745.00 1.0708e-16 
3746.50 8.8264e-17 
3748.00 8.0986e-17 
3749.50 9.0357e-17 
3751.00 1.0412e-16 
3752.50 7.9036e-17 
3754.00 6.6829e-17 
3755.50 8.1341e-17 
3757.00 6.7750e-17 
3758.50 8.8493e-17 
3760.00 8.7415e-17 
3761.50 6.7014e-17 
3763.00 2.4081e-17 
3764.50 4.7433e-17 
3766.00 9.4913e-17 
3767.50 8.2449e-17 
3769.00 9.2753e-17 
3770.50 7.9594e-17 
3772.00 7.8357e-17 
3773.50 5.5393e-17 
3775.00 6.3812e-17 
3776.50 7.8336e-17 
3778.00 6.9243e-17 
3779.50 9.5879e-17 
3781.00 7.8447e-17 
3782.50 7.4053e-17 
3784.00 6.2038e-17 
3785.50 9.7577e-17 
3787.00 7.1126e-17 
3788.50 3.7275e-17 
3790.00 5.6967e-17 
3791.50 8.2345e-17 
3793.00 8.1412e-17 
3794.50 5.6143e-17 
3796.00 6.6005e-17 
3797.50 7.7174e-17 
3799.00 4.8467e-17 
3800.50 7.0790e-17 
3802.00 7.6345e-17 
3803.50 8.3806e-17 
3805.00 8.9084e-17 
3806.50 6.7737e-17 
3808.00 3.9178e-17 
3809.50 1.7384e-17 
3811.00 2.8476e-17 
3812.50 5.2380e-17 
3814.00 7.8005e-17 
3815.50 6.1858e-17 
3817.00 4.8548e-17 
3818.50 4.9757e-17 
3820.00 7.2768e-17 
3821.50 4.8914e-17 
3823.00 3.8330e-17 
3824.50 1.6143e-17 
3826.00 2.3908e-17 
3827.50 6.0488e-17 
3829.00 8.7904e-17 
3830.50 7.6273e-17 
3832.00 7.7197e-17 
3833.50 7.0064e-17 
3835.00 6.1235e-17 
3836.50 6.0935e-17 
3838.00 7.5163e-17 
3839.50 9.2422e-17 
3841.00 7.5644e-17 
3842.50 8.3019e-17 
3844.00 8.3989e-17 
3845.50 9.0860e-17 
3847.00 1.0108e-16 
3848.50 8.7729e-17 
3850.00 7.9336e-17 
3851.50 7.6931e-17 
3853.00 7.1553e-17 
3854.50 6.9683e-17 
3856.00 7.8738e-17 
3857.50 5.0477e-17 
3859.00 5.8420e-17 
3860.50 8.8442e-17 
3862.00 7.9639e-17 
3863.50 6.4758e-17 
3865.00 6.5564e-17 
3866.50 8.5515e-17 
3868.00 8.2944e-17 
3869.50 6.9088e-17 
3871.00 6.6563e-17 
3872.50 8.4203e-17 
3874.00 8.0092e-17 
3875.50 8.3340e-17 
3877.00 9.1236e-17 
3878.50 9.5033e-17 
3880.00 8.3294e-17 
3881.50 7.5246e-17 
3883.00 7.7963e-17 
3884.50 9.0153e-17 
3886.00 8.9512e-17 
3887.50 8.1317e-17 
3889.00 7.2312e-17 
3890.50 8.3450e-17 
3892.00 8.7072e-17 
3893.50 8.9752e-17 
3895.00 8.8851e-17 
3896.50 8.6971e-17 
3898.00 7.3261e-17 
3899.50 7.3401e-17 
3901.00 7.9442e-17 
3902.50 8.6018e-17 
3904.00 7.6772e-17 
3905.50 8.9505e-17 
3907.00 9.6040e-17 
3908.50 8.5081e-17 
3910.00 5.9491e-17 
3911.50 7.5703e-17 
3913.00 1.0922e-16 
3914.50 9.0914e-17 
3916.00 9.1308e-17 
3917.50 8.9842e-17 
3919.00 9.4717e-17 
3920.50 9.9725e-17 
3922.00 9.5519e-17 
3923.50 7.8511e-17 
3925.00 7.3312e-17 
3926.50 1.0313e-16 
3928.00 9.6695e-17 
3929.50 8.8659e-17 
3931.00 8.3372e-17 
3932.50 8.4580e-17 
3934.00 7.8060e-17 
3935.50 8.7509e-17 
3937.00 1.0551e-16 
3938.50 7.6031e-17 
3940.00 6.4871e-17 
3941.50 7.9281e-17 
3943.00 8.9974e-17 
3944.50 8.0986e-17 
3946.00 8.1108e-17 
3947.50 9.0367e-17 
3949.00 8.1439e-17 
3950.50 9.9976e-17 
3952.00 8.0990e-17 
3953.50 7.8933e-17 
3955.00 7.2134e-17 
3956.50 8.3015e-17 
3958.00 8.2234e-17 
3959.50 1.0967e-16 
3961.00 1.2052e-16 
3962.50 1.1686e-16 
3964.00 1.0810e-16 
3965.50 1.1745e-16 
3967.00 1.1705e-16 
3968.50 1.0983e-16 
3970.00 1.1873e-16 
3971.50 1.1844e-16 
3973.00 1.1783e-16 
3974.50 1.0391e-16 
3976.00 6.6208e-17 
3977.50 8.3313e-17 
3979.00 1.1149e-16 
3980.50 1.3414e-16 
3982.00 1.3632e-16 
3983.50 1.4181e-16 
3985.00 1.4005e-16 
3986.50 1.5298e-16 
3988.00 1.3267e-16 
3989.50 1.4907e-16 
3991.00 1.5936e-16 
3992.50 1.3596e-16 
3994.00 1.4034e-16 
3995.50 1.5689e-16 
3997.00 1.6226e-16 
3998.50 1.6155e-16 
4000.00 1.5524e-16 
4001.50 1.3081e-16 
4003.00 1.4386e-16 
4004.50 1.9609e-16 
4006.00 2.0162e-16 
4007.50 1.8898e-16 
4009.00 1.8238e-16 
4010.50 1.7661e-16 
4012.00 1.7129e-16 
4013.50 1.5011e-16 
4015.00 1.5081e-16 
4016.50 1.5781e-16 
4018.00 6.8841e-17 
4019.50 9.2062e-17 
4021.00 1.4659e-16 
4022.50 1.9777e-16 
4024.00 2.4091e-16 
4025.50 2.4093e-16 
4027.00 2.5038e-16 
4028.50 2.8132e-16 
4030.00 2.5772e-16 
4031.50 2.0297e-16 
4033.00 2.8479e-16 
4034.50 3.2502e-16 
4036.00 3.5419e-16 
4037.50 3.4160e-16 
4039.00 2.8510e-16 
4040.50 1.1584e-16 
4042.00 1.3130e-16 
4043.50 3.4103e-16 
4045.00 4.5881e-16 
4046.50 4.8074e-16 
4048.00 5.0299e-16 
4049.50 5.5611e-16 
4051.00 5.7015e-16 
4052.50 5.8833e-16 
4054.00 6.3798e-16 
4055.50 6.3913e-16 
4057.00 6.9311e-16 
4058.50 7.1442e-16 
4060.00 7.3680e-16 
4061.50 7.4758e-16 
4063.00 7.4700e-16 
4064.50 7.0887e-16 
4066.00 6.6940e-16 
4067.50 6.3837e-16 
4069.00 5.9980e-16 
4070.50 5.9467e-16 
4072.00 5.4890e-16 
4073.50 5.5081e-16 
4075.00 5.2743e-16 
4076.50 5.0539e-16 
4078.00 4.7624e-16 
4079.50 4.6789e-16 
4081.00 4.5483e-16 
4082.50 4.2660e-16 
4084.00 4.1562e-16 
4085.50 3.9903e-16 
4087.00 3.8703e-16 
4088.50 3.8086e-16 
4090.00 3.5012e-16 
4091.50 3.3126e-16 
4093.00 3.0823e-16 
4094.50 3.0150e-16 
4096.00 2.9934e-16 
4097.50 2.8886e-16 
4099.00 2.6374e-16 
4100.50 2.5933e-16 
4102.00 2.6035e-16 
4103.50 2.4333e-16 
4105.00 2.4338e-16 
4106.50 2.2451e-16 
4108.00 2.2961e-16 
4109.50 2.2738e-16 
4111.00 2.1865e-16 
4112.50 2.1542e-16 
4114.00 2.0359e-16 
4115.50 2.0609e-16 
4117.00 2.0499e-16 
4118.50 2.0717e-16 
4120.00 1.9787e-16 
4121.50 1.8783e-16 
4123.00 2.0260e-16 
4124.50 1.9389e-16 
4126.00 1.8669e-16 
4127.50 1.7757e-16 
4129.00 1.8982e-16 
4130.50 1.8876e-16 
4132.00 1.9009e-16 
4133.50 1.8721e-16 
4135.00 1.8797e-16 
4136.50 1.7804e-16 
4138.00 1.8107e-16 
4139.50 1.7945e-16 
4141.00 1.8276e-16 
4142.50 1.9133e-16 
4144.00 1.8073e-16 
4145.50 1.7446e-16 
4147.00 1.8120e-16 
4148.50 1.8361e-16 
4150.00 1.7462e-16 
4151.50 1.4650e-16 
4153.00 1.3720e-16 
4154.50 1.5070e-16 
4156.00 1.6210e-16 
4157.50 1.5180e-16 
4159.00 1.4512e-16 
4160.50 1.4528e-16 
4162.00 1.5954e-16 
4163.50 1.6052e-16 
4165.00 1.5096e-16 
4166.50 1.6720e-16 
4168.00 1.5409e-16 
4169.50 1.5076e-16 
4171.00 1.4726e-16 
4172.50 1.4589e-16 
4174.00 1.3695e-16 
4175.50 1.4451e-16 
4177.00 1.3606e-16 
4178.50 1.3709e-16 
4180.00 1.3061e-16 
4181.50 1.3345e-16 
4183.00 1.3803e-16 
4184.50 1.2912e-16 
4186.00 1.2071e-16 
4187.50 1.0406e-16 
4189.00 1.1919e-16 
4190.50 1.3012e-16 
4192.00 1.1690e-16 
4193.50 1.1966e-16 
4195.00 1.2402e-16 
4196.50 1.3099e-16 
4198.00 1.2870e-16 
4199.50 1.2342e-16 
4201.00 1.1399e-16 
4202.50 1.1903e-16 
4204.00 1.1653e-16 
4205.50 1.1216e-16 
4207.00 1.1738e-16 
4208.50 1.2320e-16 
4210.00 1.1834e-16 
4211.50 1.1734e-16 
4213.00 1.0488e-16 
4214.50 1.0511e-16 
4216.00 1.0808e-16 
4217.50 1.1755e-16 
4219.00 1.1097e-16 
4220.50 1.1875e-16 
4222.00 1.1226e-16 
4223.50 1.0431e-16 
4225.00 1.1088e-16 
4226.50 1.0669e-16 
4228.00 1.0909e-16 
4229.50 9.9702e-17 
4231.00 9.8454e-17 
4232.50 1.0677e-16 
4234.00 1.0133e-16 
4235.50 9.2536e-17 
4237.00 9.9623e-17 
4238.50 9.5142e-17 
4240.00 9.7534e-17 
4241.50 9.5292e-17 
4243.00 1.0166e-16 
4244.50 9.0597e-17 
4246.00 9.1070e-17 
4247.50 8.4828e-17 
4249.00 8.1014e-17 
4250.50 8.6899e-17 
4252.00 8.5120e-17 
4253.50 8.7894e-17 
4255.00 9.0428e-17 
4256.50 8.5158e-17 
4258.00 9.3455e-17 
4259.50 9.0115e-17 
4261.00 8.3979e-17 
4262.50 8.5397e-17 
4264.00 7.8243e-17 
4265.50 8.1499e-17 
4267.00 8.0405e-17 
4268.50 7.3512e-17 
4270.00 8.1168e-17 
4271.50 7.9873e-17 
4273.00 7.8583e-17 
4274.50 8.1928e-17 
4276.00 8.6553e-17 
4277.50 9.0417e-17 
4279.00 8.5821e-17 
4280.50 7.6901e-17 
4282.00 8.4638e-17 
4283.50 8.4536e-17 
4285.00 8.3065e-17 
4286.50 7.9605e-17 
4288.00 7.5886e-17 
4289.50 7.9132e-17 
4291.00 7.9595e-17 
4292.50 8.8425e-17 
4294.00 8.5335e-17 
4295.50 8.2749e-17 
4297.00 7.0588e-17 
4298.50 8.6118e-17 
4300.00 8.4425e-17 
4301.50 7.9160e-17 
4303.00 8.1615e-17 
4304.50 7.4762e-17 
4306.00 7.7810e-17 
4307.50 7.6601e-17 
4309.00 8.3003e-17 
4310.50 7.6275e-17 
4312.00 8.2693e-17 
4313.50 8.5084e-17 
4315.00 8.2581e-17 
4316.50 9.4843e-17 
4318.00 9.3564e-17 
4319.50 8.6681e-17 
4321.00 8.0610e-17 
4322.50 7.9612e-17 
4324.00 8.4720e-17 
4325.50 8.6760e-17 
4327.00 7.9979e-17 
4328.50 9.0361e-17 
4330.00 9.3441e-17 
4331.50 8.9597e-17 
4333.00 8.1895e-17 
4334.50 8.9930e-17 
4336.00 9.6326e-17 
4337.50 9.7818e-17 
4339.00 9.3537e-17 
4340.50 9.2393e-17 
4342.00 9.4026e-17 
4343.50 1.0449e-16 
4345.00 1.0258e-16 
4346.50 1.0262e-16 
4348.00 1.0557e-16 
4349.50 9.6646e-17 
4351.00 9.9085e-17 
4352.50 9.8400e-17 
4354.00 1.0551e-16 
4355.50 1.0055e-16 
4357.00 9.9636e-17 
4358.50 9.5638e-17 
4360.00 1.0094e-16 
4361.50 9.9980e-17 
4363.00 9.3559e-17 
4364.50 5.6812e-17 
4366.00 5.2843e-17 
4367.50 8.8488e-17 
4369.00 1.0135e-16 
4370.50 9.4304e-17 
4372.00 7.1002e-17 
4373.50 5.8278e-17 
4375.00 8.8588e-17 
4376.50 9.9032e-17 
4378.00 9.9501e-17 
4379.50 9.3215e-17 
4381.00 9.0279e-17 
4382.50 8.0701e-17 
4384.00 8.0348e-17 
4385.50 9.1812e-17 
4387.00 8.4262e-17 
4388.50 8.5243e-17 
4390.00 7.4186e-17 
4391.50 8.3063e-17 
4393.00 8.2466e-17 
4394.50 8.2228e-17 
4396.00 7.6178e-17 
4397.50 7.4379e-17 
4399.00 7.6717e-17 
4400.50 7.4499e-17 
4402.00 7.3855e-17 
4403.50 7.5058e-17 
4405.00 6.6150e-17 
4406.50 7.1233e-17 
4408.00 7.0877e-17 
4409.50 7.1681e-17 
4411.00 6.6997e-17 
4412.50 6.6934e-17 
4414.00 6.2367e-17 
4415.50 6.9267e-17 
4417.00 6.9513e-17 
4418.50 7.6878e-17 
4420.00 7.8881e-17 
4421.50 7.1231e-17 
4423.00 6.7052e-17 
4424.50 6.9301e-17 
4426.00 6.3977e-17 
4427.50 6.2029e-17 
4429.00 6.7189e-17 
4430.50 6.5220e-17 
4432.00 7.3815e-17 
4433.50 7.1743e-17 
4435.00 6.8739e-17 
4436.50 7.1198e-17 
4438.00 6.9482e-17 
4439.50 6.8937e-17 
4441.00 7.1003e-17 
4442.50 7.6405e-17 
4444.00 7.2309e-17 
4445.50 7.1690e-17 
4447.00 7.6326e-17 
4448.50 6.9262e-17 
4450.00 7.0547e-17 
4451.50 7.0062e-17 
4453.00 7.4591e-17 
4454.50 6.9836e-17 
4456.00 7.7499e-17 
4457.50 8.2610e-17 
4459.00 7.7118e-17 
4460.50 7.4903e-17 
4462.00 7.4642e-17 
4463.50 7.0012e-17 
4465.00 7.8815e-17 
4466.50 7.0412e-17 
4468.00 7.8737e-17 
4469.50 7.4740e-17 
4471.00 7.8163e-17 
4472.50 7.5391e-17 
4474.00 7.4456e-17 
4475.50 6.5265e-17 
4477.00 7.0966e-17 
4478.50 7.3824e-17 
4480.00 6.8648e-17 
4481.50 6.1223e-17 
4483.00 6.9171e-17 
4484.50 6.6309e-17 
4486.00 6.8795e-17 
4487.50 6.1509e-17 
4489.00 5.7753e-17 
4490.50 5.6653e-17 
4492.00 6.8690e-17 
4493.50 6.3521e-17 
4495.00 6.4962e-17 
4496.50 5.9751e-17 
4498.00 7.0127e-17 
4499.50 7.0079e-17 
4501.00 6.9937e-17 
4502.50 6.2716e-17 
4504.00 6.1509e-17 
4505.50 5.5506e-17 
4507.00 6.2889e-17 
4508.50 6.2650e-17 
4510.00 5.9959e-17 
4511.50 6.2211e-17 
4513.00 6.8994e-17 
4514.50 6.5102e-17 
4516.00 6.3671e-17 
4517.50 6.5601e-17 
4519.00 6.6564e-17 
4520.50 6.6494e-17 
4522.00 6.6611e-17 
4523.50 6.2654e-17 
4525.00 6.4943e-17 
4526.50 6.4111e-17 
4528.00 6.5217e-17 
4529.50 7.6883e-17 
4531.00 7.2413e-17 
4532.50 7.2622e-17 
4534.00 6.3703e-17 
4535.50 6.1666e-17 
4537.00 7.5569e-17 
4538.50 7.0157e-17 
4540.00 6.6867e-17 
4541.50 6.7764e-17 
4543.00 6.5484e-17 
4544.50 7.3990e-17 
4546.00 7.1465e-17 
4547.50 7.1487e-17 
4549.00 7.2742e-17 
4550.50 6.8561e-17 
4552.00 6.9765e-17 
4553.50 6.9110e-17 
4555.00 6.8747e-17 
4556.50 6.7795e-17 
4558.00 6.6151e-17 
4559.50 7.0500e-17 
4561.00 6.7536e-17 
4562.50 7.3330e-17 
4564.00 6.7919e-17 
4565.50 7.3512e-17 
4567.00 5.9268e-17 
4568.50 6.2893e-17 
4570.00 7.0011e-17 
4571.50 6.4921e-17 
4573.00 6.3705e-17 
4574.50 6.9432e-17 
4576.00 7.6008e-17 
4577.50 6.8319e-17 
4579.00 6.4419e-17 
4580.50 7.3939e-17 
4582.00 7.5283e-17 
4583.50 6.9144e-17 
4585.00 7.0530e-17 
4586.50 6.3769e-17 
4588.00 6.9235e-17 
4589.50 6.3547e-17 
4591.00 6.3159e-17 
4592.50 6.2433e-17 
4594.00 6.7929e-17 
4595.50 6.7534e-17 
4597.00 6.3580e-17 
4598.50 6.1253e-17 
4600.00 6.7469e-17 
4601.50 6.8993e-17 
4603.00 6.9072e-17 
4604.50 6.7227e-17 
4606.00 6.4766e-17 
4607.50 7.0227e-17 
4609.00 6.4933e-17 
4610.50 6.9704e-17 
4612.00 6.9626e-17 
4613.50 6.6026e-17 
4615.00 6.9216e-17 
4616.50 6.4814e-17 
4618.00 7.0050e-17 
4619.50 6.7059e-17 
4621.00 6.2789e-17 
4622.50 6.4688e-17 
4624.00 7.0988e-17 
4625.50 7.3449e-17 
4627.00 7.0202e-17 
4628.50 7.6742e-17 
4630.00 6.3676e-17 
4631.50 6.6389e-17 
4633.00 6.8536e-17 
4634.50 8.0120e-17 
4636.00 7.1468e-17 
4637.50 7.5389e-17 
4639.00 7.6687e-17 
4640.50 8.1394e-17 
4642.00 7.7988e-17 
4643.50 8.0302e-17 
4645.00 7.8227e-17 
4646.50 8.2400e-17 
4648.00 8.0637e-17 
4649.50 7.3873e-17 
4651.00 6.5335e-17 
4652.50 5.7033e-17 
4654.00 7.0868e-17 
4655.50 8.3926e-17 
4657.00 8.3302e-17 
4658.50 7.3421e-17 
4660.00 6.2781e-17 
4661.50 7.1612e-17 
4663.00 8.3832e-17 
4664.50 8.9928e-17 
4666.00 9.1767e-17 
4667.50 1.0019e-16 
4669.00 8.6234e-17 
4670.50 8.8321e-17 
4672.00 9.3733e-17 
4673.50 8.8945e-17 
4675.00 9.2960e-17 
4676.50 9.0834e-17 
4678.00 9.1261e-17 
4679.50 9.2603e-17 
4681.00 9.1776e-17 
4682.50 9.5882e-17 
4684.00 9.2774e-17 
4685.50 9.2547e-17 
4687.00 9.0514e-17 
4688.50 9.4683e-17 
4690.00 9.4079e-17 
4691.50 9.8871e-17 
4693.00 9.3556e-17 
4694.50 8.4320e-17 
4696.00 9.1731e-17 
4697.50 9.0199e-17 
4699.00 8.3561e-17 
4700.50 8.8356e-17 
4702.00 7.6702e-17 
4703.50 7.8926e-17 
4705.00 8.2888e-17 
4706.50 7.2479e-17 
4708.00 7.5873e-17 
4709.50 8.0192e-17 
4711.00 7.8765e-17 
4712.50 7.5602e-17 
4714.00 6.8415e-17 
4715.50 8.2564e-17 
4717.00 7.7104e-17 
4718.50 6.9188e-17 
4720.00 7.4766e-17 
4721.50 7.2163e-17 
4723.00 7.1394e-17 
4724.50 7.1084e-17 
4726.00 7.7634e-17 
4727.50 6.2189e-17 
4729.00 6.1854e-17 
4730.50 6.6091e-17 
4732.00 6.5916e-17 
4733.50 6.5729e-17 
4735.00 6.7860e-17 
4736.50 6.3261e-17 
4738.00 5.8766e-17 
4739.50 6.2951e-17 
4741.00 7.1255e-17 
4742.50 7.0508e-17 
4744.00 6.5894e-17 
4745.50 6.2933e-17 
4747.00 6.7404e-17 
4748.50 6.9646e-17 
4750.00 6.3429e-17 
4751.50 6.7230e-17 
4753.00 6.4240e-17 
4754.50 6.8323e-17 
4756.00 6.7814e-17 
4757.50 6.7025e-17 
4759.00 6.4633e-17 
4760.50 6.0315e-17 
4762.00 6.7626e-17 
4763.50 6.9062e-17 
4765.00 6.2384e-17 
4766.50 6.4795e-17 
4768.00 6.7168e-17 
4769.50 5.9588e-17 
4771.00 6.8520e-17 
4772.50 6.1067e-17 
4774.00 6.3681e-17 
4775.50 6.7571e-17 
4777.00 6.2169e-17 
4778.50 6.3958e-17 
4780.00 5.7834e-17 
4781.50 5.8442e-17 
4783.00 6.2134e-17 
4784.50 6.5636e-17 
4786.00 6.0781e-17 
4787.50 6.6011e-17 
4789.00 6.0582e-17 
4790.50 5.7929e-17 
4792.00 5.9948e-17 
4793.50 6.7049e-17 
4795.00 6.5734e-17 
4796.50 6.0497e-17 
4798.00 6.0068e-17 
4799.50 5.6874e-17 
4801.00 5.6603e-17 
4802.50 5.3293e-17 
4804.00 5.9473e-17 
4805.50 5.7635e-17 
4807.00 6.0087e-17 
4808.50 6.2657e-17 
4810.00 5.9225e-17 
4811.50 6.3410e-17 
4813.00 5.5874e-17 
4814.50 6.0848e-17 
4816.00 5.8357e-17 
4817.50 5.5910e-17 
4819.00 5.9160e-17 
4820.50 5.3695e-17 
4822.00 5.3551e-17 
4823.50 5.4380e-17 
4825.00 5.6408e-17 
4826.50 5.8302e-17 
4828.00 6.1601e-17 
4829.50 6.5406e-17 
4831.00 6.4503e-17 
4832.50 5.4056e-17 
4834.00 5.4581e-17 
4835.50 5.6085e-17 
4837.00 5.8045e-17 
4838.50 6.2192e-17 
4840.00 5.4995e-17 
4841.50 5.0093e-17 
4843.00 6.0903e-17 
4844.50 5.8429e-17 
4846.00 4.9543e-17 
4847.50 5.9418e-17 
4849.00 5.5254e-17 
4850.50 5.6961e-17 
4852.00 5.8927e-17 
4853.50 5.8765e-17 
4855.00 6.0721e-17 
4856.50 5.3316e-17 
4858.00 6.2518e-17 
4859.50 6.1256e-17 
4861.00 5.9178e-17 
4862.50 5.6793e-17 
4864.00 5.8151e-17 
4865.50 6.0723e-17 
4867.00 5.4242e-17 
4868.50 4.7357e-17 
4870.00 4.8862e-17 
4871.50 5.8400e-17 
4873.00 6.1412e-17 
4874.50 5.4246e-17 
4876.00 5.4043e-17 
4877.50 5.5559e-17 
4879.00 4.7797e-17 
4880.50 5.8148e-17 
4882.00 5.4353e-17 
4883.50 5.5620e-17 
4885.00 5.2034e-17 
4886.50 5.1125e-17 
4888.00 5.6998e-17 
4889.50 5.5810e-17 
4891.00 6.0346e-17 
4892.50 5.8441e-17 
4894.00 5.7282e-17 
4895.50 6.0142e-17 
4897.00 6.5006e-17 
4898.50 6.0830e-17 
4900.00 5.1928e-17 
4901.50 6.3418e-17 
4903.00 5.6479e-17 
4904.50 5.7499e-17 
4906.00 5.8130e-17 
4907.50 5.7495e-17 
4909.00 5.7775e-17 
4910.50 5.5966e-17 
4912.00 5.2233e-17 
4913.50 5.8444e-17 
4915.00 5.8668e-17 
4916.50 5.9473e-17 
4918.00 5.8848e-17 
4919.50 6.0173e-17 
4921.00 5.7721e-17 
4922.50 5.9360e-17 
4924.00 5.6465e-17 
4925.50 5.6569e-17 
4927.00 5.7624e-17 
4928.50 6.5508e-17 
4930.00 5.7859e-17 
4931.50 5.5395e-17 
4933.00 5.4946e-17 
4934.50 5.7697e-17 
4936.00 5.9430e-17 
4937.50 5.5206e-17 
4939.00 5.8167e-17 
4940.50 6.2252e-17 
4942.00 6.5662e-17 
4943.50 5.9362e-17 
4945.00 6.0542e-17 
4946.50 5.7248e-17 
4948.00 6.5402e-17 
4949.50 6.0704e-17 
4951.00 5.4000e-17 
4952.50 6.5189e-17 
4954.00 6.2994e-17 
4955.50 6.2245e-17 
4957.00 6.5764e-17 
4958.50 5.5465e-17 
4960.00 6.3023e-17 
4961.50 5.9792e-17 
4963.00 6.1491e-17 
4964.50 6.8871e-17 
4966.00 5.9060e-17 
4967.50 5.7584e-17 
4969.00 6.2270e-17 
4970.50 6.4979e-17 
4972.00 6.6448e-17 
4973.50 6.4990e-17 
4975.00 6.4031e-17 
4976.50 5.9701e-17 
4978.00 5.7932e-17 
4979.50 5.0596e-17 
4981.00 5.8780e-17 
4982.50 6.4590e-17 
4984.00 6.5187e-17 
4985.50 6.1484e-17 
4987.00 6.1894e-17 
4988.50 6.5579e-17 
4990.00 5.8877e-17 
4991.50 5.6619e-17 
4993.00 6.8164e-17 
4994.50 6.6858e-17 
