Wavelength (Angstroms) Flux (erg/s/cm2/A)
# start
3400.00 0
3401.50 0
3403.00 0
3404.50 0
3406.00 0
3407.50 0
3409.00 0
3410.50 0
3412.00 0
3413.50 0
3415.00 0
3416.50 0
3418.00 0
3419.50 0
3421.00 0
3422.50 0
3424.00 0
3425.50 0
3427.00 0
3428.50 0
3430.00 0
3431.50 0
3433.00 0
3434.50 0
3436.00 0
3437.50 0
3439.00 0
3440.50 0
3442.00 0
3443.50 0
3445.00 0
3446.50 0
3448.00 0
3449.50 0
3451.00 0
3452.50 0
3454.00 0
3455.50 0
3457.00 0
3458.50 0
3460.00 0
3461.50 0
3463.00 0
3464.50 0
3466.00 0
3467.50 0
3469.00 0
3470.50 0
3472.00 0
3473.50 0
3475.00 0
3476.50 0
3478.00 0
3479.50 0
3481.00 0
3482.50 0
3484.00 0
3485.50 0
3487.00 0
3488.50 0
3490.00 0
3491.50 0
3493.00 0
3494.50 0
3496.00 0
3497.50 0
3499.00 0
3500.50 0
3502.00 0
3503.50 0
3505.00 0
3506.50 0
3508.00 0
3509.50 0
3511.00 0
3512.50 0
3514.00 0
3515.50 0
3517.00 0
3518.50 0
3520.00 0
3521.50 0
3523.00 0
3524.50 0
3526.00 0
3527.50 0
3529.00 0
3530.50 0
3532.00 0
3533.50 0
3535.00 0
3536.50 0
3538.00 0
3539.50 0
3541.00 0
3542.50 0
3544.00 0
3545.50 0
3547.00 0
3548.50 0
3550.00 0
3551.50 0
3553.00 0
3554.50 0
3556.00 0
3557.50 0
3559.00 0
3560.50 0
3562.00 0
3563.50 0
3565.00 0
3566.50 0
3568.00 0
3569.50 0
3571.00 0
3572.50 0
3574.00 0
3575.50 0
3577.00 0
3578.50 0
3580.00 0
3581.50 0
3583.00 0
3584.50 0
3586.00 0
3587.50 0
3589.00 0
3590.50 0
3592.00 0
3593.50 0
3595.00 0
3596.50 0
3598.00 0
3599.50 0
3601.00 0
3602.50 0
3604.00 0
3605.50 0
3607.00 0
3608.50 0
3610.00 0
3611.50 0
3613.00 0
3614.50 0
3616.00 0
3617.50 0
3619.00 0
3620.50 0
3622.00 0
3623.50 0
3625.00 0
3626.50 0
3628.00 0
3629.50 0
3631.00 0
3632.50 0
3634.00 0
3635.50 0
3637.00 0
3638.50 0
3640.00 0
3641.50 0
3643.00 0
3644.50 0
3646.00 0
3647.50 0
3649.00 0
3650.50 0
3652.00 0
3653.50 0
3655.00 0
3656.50 0
3658.00 0
3659.50 0
3661.00 0
3662.50 0
3664.00 0
3665.50 0
3667.00 0
3668.50 0
3670.00 0
3671.50 0
3673.00 0
3674.50 0
3676.00 0
3677.50 0
3679.00 0
3680.50 0
3682.00 0
3683.50 0
3685.00 0
3686.50 0
3688.00 0
3689.50 0
3691.00 0
3692.50 0
3694.00 0
3695.50 0
3697.00 0
3698.50 0
3700.00 0
3701.50 0
3703.00 0
3704.50 0
3706.00 0
3707.50 0
3709.00 0
3710.50 0
3712.00 0
3713.50 0
3715.00 0
3716.50 0
3718.00 0
3719.50 0
3721.00 0
3722.50 0
3724.00 0
3725.50 0
3727.00 0
3728.50 0
3730.00 0
3731.50 0
3733.00 0
3734.50 0
3736.00 0
3737.50 0
3739.00 0
3740.50 0
3742.00 0
3743.50 0
3745.00 0
3746.50 0
3748.00 0
3749.50 0
3751.00 0
3752.50 0
3754.00 0
3755.50 0
3757.00 0
3758.50 0
3760.00 0
3761.50 0
3763.00 0
3764.50 0
3766.00 0
3767.50 0
3769.00 0
3770.50 0
3772.00 0
3773.50 0
3775.00 0
3776.50 0
3778.00 0
3779.50 0
3781.00 0
3782.50 0
3784.00 0
3785.50 0
3787.00 0
3788.50 0
3790.00 0
3791.50 0
3793.00 0
3794.50 0
3796.00 0
3797.50 2.4629e-16 
3799.00 2.4625e-16 
3800.50 2.4622e-16 
3802.00 2.4619e-16 
3803.50 2.4616e-16 
3805.00 2.4612e-16 
3806.50 2.4609e-16 
3808.00 2.4606e-16 
3809.50 2.6390e-16 
3811.00 2.4306e-16 
3812.50 2.3309e-16 
3814.00 2.3694e-16 
3815.50 2.0232e-16 
3817.00 1.9270e-16 
3818.50 2.2702e-16 
3820.00 1.9933e-16 
3821.50 1.9332e-16 
3823.00 1.7681e-16 
3824.50 2.1961e-16 
3826.00 2.2151e-16 
3827.50 1.8585e-16 
3829.00 1.8390e-16 
3830.50 1.9713e-16 
3832.00 1.5290e-16 
3833.50 1.8969e-16 
3835.00 2.1025e-16 
3836.50 1.6792e-16 
3838.00 1.9342e-16 
3839.50 1.8685e-16 
3841.00 1.6817e-16 
3842.50 1.6979e-16 
3844.00 1.9562e-16 
3845.50 1.9034e-16 
3847.00 1.8558e-16 
3848.50 2.0393e-16 
3850.00 1.7203e-16 
3851.50 1.5116e-16 
3853.00 1.3357e-16 
3854.50 1.0146e-16 
3856.00 1.8980e-16 
3857.50 2.0177e-16 
3859.00 1.7952e-16 
3860.50 1.7636e-16 
3862.00 2.1968e-16 
3863.50 2.0730e-16 
3865.00 1.6489e-16 
3866.50 1.1765e-16 
3868.00 1.9403e-16 
3869.50 1.6733e-16 
3871.00 2.1916e-16 
3872.50 1.4339e-16 
3874.00 1.6241e-16 
3875.50 1.7509e-16 
3877.00 1.5570e-16 
3878.50 1.8444e-16 
3880.00 2.0706e-16 
3881.50 1.4498e-16 
3883.00 1.4176e-16 
3884.50 7.9363e-17 
3886.00 4.9142e-17 
3887.50 7.7940e-17 
3889.00 1.9078e-16 
3890.50 1.7019e-16 
3892.00 1.7739e-16 
3893.50 1.4744e-16 
3895.00 1.9228e-16 
3896.50 1.7752e-16 
3898.00 1.5493e-16 
3899.50 1.9929e-16 
3901.00 1.6424e-16 
3902.50 1.3524e-16 
3904.00 1.8065e-16 
3905.50 1.7635e-16 
3907.00 1.4455e-16 
3908.50 1.7135e-16 
3910.00 1.5458e-16 
3911.50 1.3137e-16 
3913.00 1.4980e-16 
3914.50 1.6319e-16 
3916.00 1.5806e-16 
3917.50 1.9745e-16 
3919.00 1.3747e-16 
3920.50 1.1484e-16 
3922.00 1.4291e-16 
3923.50 1.4784e-16 
3925.00 1.3917e-16 
3926.50 1.3134e-16 
3928.00 1.5204e-16 
3929.50 1.3845e-16 
3931.00 1.3044e-16 
3932.50 1.0599e-16 
3934.00 1.1762e-16 
3935.50 1.2718e-16 
3937.00 1.4857e-16 
3938.50 1.0874e-16 
3940.00 1.1001e-16 
3941.50 1.0088e-16 
3943.00 1.4349e-16 
3944.50 1.4643e-16 
3946.00 1.4349e-16 
3947.50 1.3973e-16 
3949.00 1.2384e-16 
3950.50 1.3227e-16 
3952.00 1.3098e-16 
3953.50 1.0584e-16 
3955.00 1.3731e-16 
3956.50 1.3194e-16 
3958.00 1.0918e-16 
3959.50 9.2353e-17 
3961.00 1.3912e-16 
3962.50 1.3960e-16 
3964.00 1.2269e-16 
3965.50 1.2961e-16 
3967.00 1.4980e-16 
3968.50 1.3261e-16 
3970.00 1.2909e-16 
3971.50 9.7905e-17 
3973.00 1.4308e-16 
3974.50 1.4407e-16 
3976.00 1.5700e-16 
3977.50 1.2322e-16 
3979.00 1.1326e-16 
3980.50 1.2588e-16 
3982.00 1.2711e-16 
3983.50 1.3862e-16 
3985.00 1.4080e-16 
3986.50 1.0491e-16 
3988.00 1.3001e-16 
3989.50 1.0910e-16 
3991.00 1.1274e-16 
3992.50 9.4126e-17 
3994.00 1.1500e-16 
3995.50 1.1796e-16 
3997.00 1.2548e-16 
3998.50 1.4477e-16 
4000.00 1.2655e-16 
4001.50 1.1454e-16 
4003.00 1.2664e-16 
4004.50 1.2129e-16 
4006.00 1.1355e-16 
4007.50 1.2908e-16 
4009.00 1.1385e-16 
4010.50 1.1667e-16 
4012.00 1.3919e-16 
4013.50 1.3640e-16 
4015.00 1.1565e-16 
4016.50 1.0318e-16 
4018.00 1.1877e-16 
4019.50 1.4945e-16 
4021.00 9.4487e-17 
4022.50 1.0451e-16 
4024.00 1.0469e-16 
4025.50 1.0771e-16 
4027.00 9.8974e-17 
4028.50 1.1165e-16 
4030.00 9.4369e-17 
4031.50 1.2393e-16 
4033.00 1.2425e-16 
4034.50 1.0382e-16 
4036.00 1.1615e-16 
4037.50 1.2518e-16 
4039.00 1.1546e-16 
4040.50 1.1744e-16 
4042.00 1.4024e-16 
4043.50 1.3734e-16 
4045.00 1.2768e-16 
4046.50 1.0523e-16 
4048.00 1.5592e-16 
4049.50 1.0811e-16 
4051.00 1.0098e-16 
4052.50 1.5828e-16 
4054.00 1.6287e-16 
4055.50 9.7250e-17 
4057.00 1.0868e-16 
4058.50 6.2870e-17 
4060.00 9.3983e-17 
4061.50 1.1304e-16 
4063.00 1.2696e-16 
4064.50 1.0794e-16 
4066.00 1.0432e-16 
4067.50 1.0407e-16 
4069.00 1.2882e-16 
4070.50 1.0206e-16 
4072.00 1.0921e-16 
4073.50 1.1202e-16 
4075.00 1.0739e-16 
4076.50 1.3323e-16 
4078.00 1.2128e-16 
4079.50 1.2379e-16 
4081.00 1.2127e-16 
4082.50 1.0359e-16 
4084.00 6.4338e-17 
4085.50 9.0883e-17 
4087.00 1.2323e-16 
4088.50 1.2550e-16 
4090.00 1.3124e-16 
4091.50 1.0480e-16 
4093.00 9.9984e-17 
4094.50 1.4079e-16 
4096.00 1.2639e-16 
4097.50 1.1709e-16 
4099.00 1.1582e-16 
4100.50 1.1825e-16 
4102.00 1.1275e-16 
4103.50 1.4235e-16 
4105.00 1.2976e-16 
4106.50 1.1514e-16 
4108.00 1.0596e-16 
4109.50 1.1942e-16 
4111.00 1.0930e-16 
4112.50 1.1476e-16 
4114.00 9.3024e-17 
4115.50 9.9306e-17 
4117.00 1.0566e-16 
4118.50 1.2205e-16 
4120.00 1.1528e-16 
4121.50 1.0644e-16 
4123.00 1.1001e-16 
4124.50 1.2154e-16 
4126.00 1.0306e-16 
4127.50 1.0732e-16 
4129.00 1.1396e-16 
4130.50 1.1142e-16 
4132.00 1.0274e-16 
4133.50 1.1617e-16 
4135.00 1.0945e-16 
4136.50 1.2466e-16 
4138.00 1.0971e-16 
4139.50 8.1802e-17 
4141.00 7.7230e-17 
4142.50 1.1073e-16 
4144.00 1.3000e-16 
4145.50 1.1648e-16 
4147.00 1.0847e-16 
4148.50 1.2930e-16 
4150.00 8.4349e-17 
4151.50 1.1972e-16 
4153.00 1.3864e-16 
4154.50 1.0473e-16 
4156.00 1.1161e-16 
4157.50 1.1477e-16 
4159.00 9.9240e-17 
4160.50 9.2716e-17 
4162.00 1.1395e-16 
4163.50 1.1549e-16 
4165.00 1.1025e-16 
4166.50 1.0304e-16 
4168.00 1.0202e-16 
4169.50 1.0317e-16 
4171.00 1.1440e-16 
4172.50 1.1065e-16 
4174.00 1.2536e-16 
4175.50 1.1495e-16 
4177.00 1.0451e-16 
4178.50 1.1978e-16 
4180.00 1.0035e-16 
4181.50 1.1281e-16 
4183.00 1.0372e-16 
4184.50 1.2035e-16 
4186.00 1.0853e-16 
4187.50 1.0958e-16 
4189.00 1.2567e-16 
4190.50 1.2829e-16 
4192.00 1.2307e-16 
4193.50 1.3784e-16 
4195.00 1.2893e-16 
4196.50 1.4533e-16 
4198.00 1.0490e-16 
4199.50 1.0963e-16 
4201.00 1.0268e-16 
4202.50 1.1272e-16 
4204.00 1.4009e-16 
4205.50 1.1153e-16 
4207.00 9.8525e-17 
4208.50 7.9034e-17 
4210.00 1.3348e-16 
4211.50 1.0611e-16 
4213.00 1.1449e-16 
4214.50 1.2377e-16 
4216.00 9.7140e-17 
4217.50 1.0871e-16 
4219.00 1.1645e-16 
4220.50 1.0145e-16 
4222.00 1.1360e-16 
4223.50 1.1009e-16 
4225.00 1.2203e-16 
4226.50 1.2924e-16 
4228.00 1.1026e-16 
4229.50 1.3347e-16 
4231.00 1.1048e-16 
4232.50 1.0308e-16 
4234.00 1.3020e-16 
4235.50 9.4416e-17 
4237.00 1.1442e-16 
4238.50 1.2018e-16 
4240.00 1.2154e-16 
4241.50 1.3726e-16 
4243.00 1.1228e-16 
4244.50 1.3106e-16 
4246.00 1.1880e-16 
4247.50 1.1737e-16 
4249.00 1.2292e-16 
4250.50 1.1204e-16 
4252.00 1.1742e-16 
4253.50 1.3586e-16 
4255.00 1.0883e-16 
4256.50 1.2771e-16 
4258.00 1.2786e-16 
4259.50 1.2264e-16 
4261.00 1.2684e-16 
4262.50 1.1532e-16 
4264.00 1.3872e-16 
4265.50 1.2860e-16 
4267.00 1.0527e-16 
4268.50 1.1465e-16 
4270.00 1.1248e-16 
4271.50 1.0079e-16 
4273.00 1.2469e-16 
4274.50 1.1999e-16 
4276.00 1.3255e-16 
4277.50 9.7424e-17 
4279.00 1.1704e-16 
4280.50 1.3032e-16 
4282.00 8.5301e-17 
4283.50 1.2698e-16 
4285.00 1.2033e-16 
4286.50 1.1795e-16 
4288.00 1.3432e-16 
4289.50 1.3409e-16 
4291.00 1.3937e-16 
4292.50 1.1781e-16 
4294.00 1.0223e-16 
4295.50 1.2992e-16 
4297.00 1.3888e-16 
4298.50 1.1998e-16 
4300.00 1.2012e-16 
4301.50 1.3468e-16 
4303.00 1.2478e-16 
4304.50 1.2275e-16 
4306.00 1.1196e-16 
4307.50 1.2274e-16 
4309.00 1.3628e-16 
4310.50 1.1108e-16 
4312.00 1.4454e-16 
4313.50 1.2652e-16 
4315.00 1.1189e-16 
4316.50 1.1436e-16 
4318.00 1.3211e-16 
4319.50 1.3352e-16 
4321.00 1.4863e-16 
4322.50 1.2103e-16 
4324.00 1.1284e-16 
4325.50 1.2360e-16 
4327.00 1.2850e-16 
4328.50 1.3465e-16 
4330.00 1.2432e-16 
4331.50 1.3714e-16 
4333.00 1.2057e-16 
4334.50 1.2491e-16 
4336.00 9.9778e-17 
4337.50 1.1577e-16 
4339.00 1.3678e-16 
4340.50 1.4439e-16 
4342.00 1.2649e-16 
4343.50 1.1770e-16 
4345.00 1.4383e-16 
4346.50 1.1756e-16 
4348.00 1.3357e-16 
4349.50 1.1812e-16 
4351.00 1.4480e-16 
4352.50 1.4167e-16 
4354.00 1.3626e-16 
4355.50 1.4643e-16 
4357.00 1.5340e-16 
4358.50 1.2248e-16 
4360.00 1.3288e-16 
4361.50 1.2153e-16 
4363.00 1.3271e-16 
4364.50 1.1985e-16 
4366.00 1.2052e-16 
4367.50 1.3599e-16 
4369.00 1.3933e-16 
4370.50 1.5664e-16 
4372.00 1.2261e-16 
4373.50 1.2400e-16 
4375.00 1.3317e-16 
4376.50 1.3512e-16 
4378.00 1.2062e-16 
4379.50 1.4619e-16 
4381.00 1.2886e-16 
4382.50 1.2242e-16 
4384.00 1.3058e-16 
4385.50 1.3884e-16 
4387.00 1.4347e-16 
4388.50 1.2462e-16 
4390.00 1.3447e-16 
4391.50 1.2095e-16 
4393.00 1.2354e-16 
4394.50 1.1052e-16 
4396.00 1.0971e-16 
4397.50 1.4804e-16 
4399.00 1.1074e-16 
4400.50 1.0972e-16 
4402.00 1.1947e-16 
4403.50 1.1851e-16 
4405.00 1.1592e-16 
4406.50 1.0891e-16 
4408.00 1.0365e-16 
4409.50 1.3882e-16 
4411.00 1.3699e-16 
4412.50 1.3594e-16 
4414.00 1.2470e-16 
4415.50 1.2907e-16 
4417.00 1.0385e-16 
4418.50 1.0808e-16 
4420.00 1.1256e-16 
4421.50 1.1660e-16 
4423.00 1.3088e-16 
4424.50 1.1194e-16 
4426.00 1.1717e-16 
4427.50 1.0940e-16 
4429.00 1.1527e-16 
4430.50 1.3117e-16 
4432.00 1.3218e-16 
4433.50 1.2010e-16 
4435.00 1.2195e-16 
4436.50 1.0690e-16 
4438.00 1.0344e-16 
4439.50 1.1880e-16 
4441.00 1.2200e-16 
4442.50 1.2622e-16 
4444.00 8.4708e-17 
4445.50 5.0026e-17 
4447.00 7.5852e-17 
4448.50 1.0429e-16 
4450.00 1.0860e-16 
4451.50 1.1234e-16 
4453.00 1.2230e-16 
4454.50 1.0333e-16 
4456.00 1.0215e-16 
4457.50 1.1188e-16 
4459.00 1.2203e-16 
4460.50 1.2438e-16 
4462.00 1.1299e-16 
4463.50 1.0008e-16 
4465.00 1.0201e-16 
4466.50 9.3373e-17 
4468.00 1.0785e-16 
4469.50 9.6311e-17 
4471.00 1.1959e-16 
4472.50 1.0812e-16 
4474.00 1.0658e-16 
4475.50 1.0330e-16 
4477.00 1.1456e-16 
4478.50 1.1203e-16 
4480.00 1.1411e-16 
4481.50 1.2462e-16 
4483.00 1.2212e-16 
4484.50 1.1936e-16 
4486.00 1.0662e-16 
4487.50 1.0558e-16 
4489.00 1.0409e-16 
4490.50 1.2057e-16 
4492.00 1.0605e-16 
4493.50 1.1494e-16 
4495.00 1.2202e-16 
4496.50 1.2293e-16 
4498.00 1.2169e-16 
4499.50 1.1225e-16 
4501.00 1.0122e-16 
4502.50 1.0018e-16 
4504.00 8.2522e-17 
4505.50 8.8594e-17 
4507.00 7.1551e-17 
4508.50 4.9130e-17 
4510.00 8.7567e-17 
4511.50 1.0256e-16 
4513.00 1.1056e-16 
4514.50 7.0564e-17 
4516.00 5.7233e-17 
4517.50 8.6204e-17 
4519.00 1.0051e-16 
4520.50 1.1153e-16 
4522.00 1.1177e-16 
4523.50 1.1252e-16 
4525.00 9.6444e-17 
4526.50 9.3189e-17 
4528.00 1.1528e-16 
4529.50 1.1587e-16 
4531.00 1.1053e-16 
4532.50 1.0242e-16 
4534.00 1.0418e-16 
4535.50 1.0761e-16 
4537.00 1.1178e-16 
4538.50 1.0214e-16 
4540.00 9.4824e-17 
4541.50 9.1147e-17 
4543.00 1.2279e-16 
4544.50 1.1042e-16 
4546.00 1.0477e-16 
4547.50 1.1190e-16 
4549.00 1.1812e-16 
4550.50 1.0048e-16 
4552.00 1.1734e-16 
4553.50 1.1853e-16 
4555.00 1.0990e-16 
4556.50 9.6682e-17 
4558.00 9.3557e-17 
4559.50 1.1118e-16 
4561.00 1.0469e-16 
4562.50 1.0996e-16 
4564.00 1.2679e-16 
4565.50 1.1623e-16 
4567.00 1.0819e-16 
4568.50 7.9354e-17 
4570.00 7.6130e-17 
4571.50 1.1212e-16 
4573.00 1.0288e-16 
4574.50 1.1267e-16 
4576.00 9.6507e-17 
4577.50 9.1950e-17 
4579.00 1.0156e-16 
4580.50 1.1141e-16 
4582.00 1.0914e-16 
4583.50 1.0809e-16 
4585.00 1.0784e-16 
4586.50 1.0547e-16 
4588.00 9.7972e-17 
4589.50 9.9777e-17 
4591.00 1.0581e-16 
4592.50 9.9932e-17 
4594.00 1.2649e-16 
4595.50 1.1598e-16 
4597.00 1.1619e-16 
4598.50 1.1397e-16 
4600.00 9.5326e-17 
4601.50 1.1357e-16 
4603.00 1.0592e-16 
4604.50 1.0242e-16 
4606.00 1.0444e-16 
4607.50 1.0327e-16 
4609.00 1.2772e-16 
4610.50 1.1919e-16 
4612.00 1.1926e-16 
4613.50 1.0870e-16 
4615.00 9.3453e-17 
4616.50 9.3910e-17 
4618.00 1.0487e-16 
4619.50 1.0143e-16 
4621.00 1.0304e-16 
4622.50 1.1325e-16 
4624.00 1.2317e-16 
4625.50 1.0379e-16 
4627.00 1.0686e-16 
4628.50 1.1540e-16 
4630.00 1.1489e-16 
4631.50 1.2342e-16 
4633.00 8.9712e-17 
4634.50 1.0045e-16 
4636.00 1.0852e-16 
4637.50 1.1102e-16 
4639.00 1.1179e-16 
4640.50 1.1880e-16 
4642.00 8.6479e-17 
4643.50 1.1360e-16 
4645.00 1.1890e-16 
4646.50 1.0403e-16 
4648.00 1.0291e-16 
4649.50 1.0715e-16 
4651.00 9.7118e-17 
4652.50 1.0037e-16 
4654.00 1.1831e-16 
4655.50 1.1972e-16 
4657.00 1.1262e-16 
4658.50 1.0508e-16 
4660.00 1.0292e-16 
4661.50 1.1047e-16 
4663.00 1.0774e-16 
4664.50 1.0413e-16 
4666.00 9.7713e-17 
4667.50 1.1088e-16 
4669.00 1.1847e-16 
4670.50 1.1201e-16 
4672.00 9.3959e-17 
4673.50 9.6340e-17 
4675.00 9.9996e-17 
4676.50 1.0191e-16 
4678.00 9.6815e-17 
4679.50 8.6982e-17 
4681.00 1.0617e-16 
4682.50 6.5175e-17 
4684.00 6.6150e-17 
4685.50 8.0570e-17 
4687.00 1.0297e-16 
4688.50 1.0710e-16 
4690.00 1.2581e-16 
4691.50 1.2171e-16 
4693.00 1.1435e-16 
4694.50 1.0952e-16 
4696.00 1.2004e-16 
4697.50 1.0569e-16 
4699.00 1.0021e-16 
4700.50 1.1193e-16 
4702.00 1.0637e-16 
4703.50 1.0732e-16 
4705.00 1.1294e-16 
4706.50 1.1708e-16 
4708.00 1.0665e-16 
4709.50 1.1905e-16 
4711.00 1.2039e-16 
4712.50 1.0083e-16 
4714.00 1.1481e-16 
4715.50 1.0117e-16 
4717.00 1.0010e-16 
4718.50 1.0589e-16 
4720.00 1.0969e-16 
4721.50 1.0426e-16 
4723.00 1.0524e-16 
4724.50 1.1369e-16 
4726.00 1.1679e-16 
4727.50 9.9074e-17 
4729.00 1.1467e-16 
4730.50 1.2906e-16 
4732.00 1.2006e-16 
4733.50 1.1091e-16 
4735.00 1.1769e-16 
4736.50 1.0958e-16 
4738.00 1.1431e-16 
4739.50 1.1927e-16 
4741.00 1.2116e-16 
4742.50 1.1005e-16 
4744.00 1.1249e-16 
4745.50 1.3184e-16 
4747.00 1.1991e-16 
4748.50 1.0066e-16 
4750.00 1.0206e-16 
4751.50 1.1889e-16 
4753.00 1.1030e-16 
4754.50 1.2237e-16 
4756.00 1.1628e-16 
4757.50 1.2977e-16 
4759.00 1.1723e-16 
4760.50 1.1556e-16 
4762.00 1.2422e-16 
4763.50 1.2069e-16 
4765.00 1.3509e-16 
4766.50 1.2291e-16 
4768.00 1.1877e-16 
4769.50 1.4014e-16 
4771.00 1.1741e-16 
4772.50 1.1463e-16 
4774.00 1.1313e-16 
4775.50 1.2456e-16 
4777.00 1.2221e-16 
4778.50 1.2685e-16 
4780.00 1.2924e-16 
4781.50 1.2529e-16 
4783.00 1.1364e-16 
4784.50 1.2862e-16 
4786.00 1.2283e-16 
4787.50 1.1467e-16 
4789.00 1.1551e-16 
4790.50 1.3487e-16 
4792.00 1.2601e-16 
4793.50 1.2865e-16 
4795.00 1.3123e-16 
4796.50 1.2698e-16 
4798.00 1.1055e-16 
4799.50 1.2590e-16 
4801.00 1.2885e-16 
4802.50 1.3055e-16 
4804.00 1.5264e-16 
4805.50 1.3791e-16 
4807.00 1.4123e-16 
4808.50 1.5857e-16 
4810.00 1.5749e-16 
4811.50 1.4474e-16 
4813.00 1.6429e-16 
4814.50 1.0823e-16 
4816.00 5.6892e-17 
4817.50 7.9877e-17 
4819.00 1.2195e-16 
4820.50 1.3712e-16 
4822.00 1.2531e-16 
4823.50 8.3505e-17 
4825.00 9.0520e-17 
4826.50 1.0332e-16 
4828.00 1.2893e-16 
4829.50 1.4493e-16 
4831.00 1.4488e-16 
4832.50 1.3204e-16 
4834.00 1.4377e-16 
4835.50 1.2790e-16 
4837.00 1.3890e-16 
4838.50 1.4450e-16 
4840.00 1.2899e-16 
4841.50 1.4210e-16 
4843.00 1.2514e-16 
4844.50 1.1019e-16 
4846.00 1.3838e-16 
4847.50 1.2982e-16 
4849.00 1.3188e-16 
4850.50 1.3558e-16 
4852.00 9.8799e-17 
4853.50 1.1131e-16 
4855.00 1.2754e-16 
4856.50 1.2502e-16 
4858.00 1.2061e-16 
4859.50 1.0621e-16 
4861.00 1.0300e-16 
4862.50 9.1282e-17 
4864.00 6.0826e-17 
4865.50 4.9406e-17 
4867.00 8.6918e-17 
4868.50 1.1386e-16 
4870.00 1.1820e-16 
4871.50 1.1126e-16 
4873.00 1.1043e-16 
4874.50 1.2170e-16 
4876.00 1.1081e-16 
4877.50 1.1220e-16 
4879.00 1.1928e-16 
4880.50 1.2338e-16 
4882.00 1.1795e-16 
4883.50 1.0550e-16 
4885.00 1.2287e-16 
4886.50 1.1839e-16 
4888.00 1.1354e-16 
4889.50 1.1687e-16 
4891.00 1.1667e-16 
4892.50 1.2078e-16 
4894.00 1.1324e-16 
4895.50 1.1307e-16 
4897.00 1.2044e-16 
4898.50 1.1239e-16 
4900.00 1.0026e-16 
4901.50 1.1669e-16 
4903.00 1.0760e-16 
4904.50 1.1018e-16 
4906.00 1.1142e-16 
4907.50 1.0852e-16 
4909.00 1.1356e-16 
4910.50 1.1353e-16 
4912.00 1.1301e-16 
4913.50 1.0421e-16 
4915.00 1.0885e-16 
4916.50 1.2889e-16 
4918.00 1.1827e-16 
4919.50 1.1488e-16 
4921.00 1.2065e-16 
4922.50 1.1718e-16 
4924.00 9.8803e-17 
4925.50 9.0710e-17 
4927.00 9.7169e-17 
4928.50 9.6525e-17 
4930.00 1.0941e-16 
4931.50 1.0571e-16 
4933.00 9.6785e-17 
4934.50 9.7262e-17 
4936.00 1.0537e-16 
4937.50 1.1298e-16 
4939.00 9.7323e-17 
4940.50 1.0005e-16 
4942.00 1.1756e-16 
4943.50 1.0125e-16 
4945.00 9.8952e-17 
4946.50 1.0983e-16 
4948.00 1.0886e-16 
4949.50 1.0634e-16 
4951.00 1.0317e-16 
4952.50 1.0705e-16 
4954.00 1.0120e-16 
4955.50 1.0093e-16 
4957.00 1.1975e-16 
4958.50 1.0542e-16 
4960.00 1.0702e-16 
4961.50 1.0722e-16 
4963.00 1.0997e-16 
4964.50 1.0781e-16 
4966.00 1.1166e-16 
4967.50 9.7848e-17 
4969.00 1.0783e-16 
4970.50 9.8719e-17 
4972.00 9.2711e-17 
4973.50 1.0663e-16 
4975.00 1.0018e-16 
4976.50 1.1369e-16 
4978.00 9.5003e-17 
4979.50 1.0237e-16 
4981.00 8.3943e-17 
4982.50 9.3037e-17 
4984.00 1.0111e-16 
4985.50 1.1714e-16 
4987.00 1.0998e-16 
4988.50 1.1954e-16 
4990.00 1.0119e-16 
4991.50 1.1294e-16 
4993.00 1.0689e-16 
4994.50 1.0062e-16 
4996.00 1.0234e-16 
4997.50 1.0271e-16 
4999.00 9.4096e-17 
5000.50 9.9399e-17 
5002.00 1.1638e-16 
5003.50 1.1862e-16 
5005.00 1.0157e-16 
5006.50 9.8639e-17 
5008.00 1.0463e-16 
5009.50 1.0582e-16 
5011.00 1.0623e-16 
5012.50 9.3139e-17 
5014.00 9.0018e-17 
5015.50 1.0474e-16 
5017.00 1.0998e-16 
5018.50 1.0803e-16 
5020.00 1.0732e-16 
5021.50 9.9730e-17 
5023.00 1.1329e-16 
5024.50 1.0668e-16 
5026.00 1.0508e-16 
5027.50 1.0503e-16 
5029.00 1.1329e-16 
5030.50 9.1149e-17 
5032.00 8.7802e-17 
5033.50 8.9470e-17 
5035.00 1.0906e-16 
5036.50 9.7599e-17 
5038.00 9.3444e-17 
5039.50 1.0996e-16 
5041.00 1.1230e-16 
5042.50 1.0200e-16 
5044.00 1.0192e-16 
5045.50 1.0883e-16 
5047.00 1.1492e-16 
5048.50 1.1039e-16 
5050.00 1.1238e-16 
5051.50 1.0357e-16 
5053.00 8.3193e-17 
5054.50 9.7239e-17 
5056.00 9.7147e-17 
5057.50 9.6695e-17 
5059.00 1.0097e-16 
5060.50 9.9256e-17 
5062.00 1.0717e-16 
5063.50 1.0285e-16 
5065.00 1.0057e-16 
5066.50 1.0148e-16 
5068.00 1.0796e-16 
5069.50 8.6320e-17 
5071.00 8.8234e-17 
5072.50 9.9187e-17 
5074.00 9.4229e-17 
5075.50 1.0501e-16 
5077.00 1.0521e-16 
5078.50 1.1060e-16 
5080.00 9.8515e-17 
5081.50 9.6806e-17 
5083.00 9.5879e-17 
5084.50 1.0619e-16 
5086.00 1.0355e-16 
5087.50 1.0481e-16 
5089.00 1.1090e-16 
5090.50 1.0367e-16 
5092.00 1.0817e-16 
5093.50 1.0624e-16 
