Wavelength (Angstroms) Flux (erg/s/cm2/A)
# start
3400.00 0
3401.50 0
3403.00 0
3404.50 0
3406.00 0
3407.50 0
3409.00 0
3410.50 0
3412.00 0
3413.50 0
3415.00 0
3416.50 0
3418.00 0
3419.50 0
3421.00 0
3422.50 0
3424.00 0
3425.50 0
3427.00 0
3428.50 0
3430.00 0
3431.50 0
3433.00 0
3434.50 0
3436.00 0
3437.50 0
3439.00 0
3440.50 0
3442.00 0
3443.50 0
3445.00 0
3446.50 0
3448.00 0
3449.50 0
3451.00 0
3452.50 0
3454.00 0
3455.50 0
3457.00 0
3458.50 0
3460.00 0
3461.50 0
3463.00 0
3464.50 0
3466.00 0
3467.50 0
3469.00 0
3470.50 0
3472.00 0
3473.50 0
3475.00 0
3476.50 0
3478.00 0
3479.50 0
3481.00 0
3482.50 0
3484.00 0
3485.50 0
3487.00 0
3488.50 0
3490.00 0
3491.50 0
3493.00 0
3494.50 0
3496.00 0
3497.50 0
3499.00 0
3500.50 0
3502.00 0
3503.50 0
3505.00 0
3506.50 0
3508.00 0
3509.50 0
3511.00 0
3512.50 0
3514.00 0
3515.50 0
3517.00 0
3518.50 0
3520.00 0
3521.50 0
3523.00 0
3524.50 0
3526.00 0
3527.50 0
3529.00 0
3530.50 0
3532.00 0
3533.50 0
3535.00 0
3536.50 0
3538.00 0
3539.50 0
3541.00 0
3542.50 0
3544.00 0
3545.50 0
3547.00 0
3548.50 0
3550.00 0
3551.50 0
3553.00 0
3554.50 0
3556.00 0
3557.50 0
3559.00 0
3560.50 0
3562.00 0
3563.50 0
3565.00 0
3566.50 0
3568.00 0
3569.50 0
3571.00 0
3572.50 0
3574.00 0
3575.50 0
3577.00 0
3578.50 0
3580.00 0
3581.50 0
3583.00 0
3584.50 0
3586.00 0
3587.50 0
3589.00 0
3590.50 0
3592.00 0
3593.50 0
3595.00 0
3596.50 0
3598.00 0
3599.50 0
3601.00 0
3602.50 0
3604.00 0
3605.50 0
3607.00 0
3608.50 0
3610.00 0
3611.50 0
3613.00 0
3614.50 0
3616.00 0
3617.50 0
3619.00 0
3620.50 0
3622.00 0
3623.50 0
3625.00 0
3626.50 0
3628.00 0
3629.50 0
3631.00 0
3632.50 0
3634.00 0
3635.50 0
3637.00 0
3638.50 0
3640.00 0
3641.50 0
3643.00 0
3644.50 0
3646.00 0
3647.50 0
3649.00 0
3650.50 0
3652.00 0
3653.50 0
3655.00 0
3656.50 0
3658.00 0
3659.50 0
3661.00 0
3662.50 0
3664.00 0
3665.50 0
3667.00 0
3668.50 0
3670.00 0
3671.50 0
3673.00 0
3674.50 0
3676.00 0
3677.50 0
3679.00 0
3680.50 0
3682.00 0
3683.50 0
3685.00 0
3686.50 0
3688.00 0
3689.50 0
3691.00 0
3692.50 0
3694.00 0
3695.50 0
3697.00 0
3698.50 0
3700.00 0
3701.50 0
3703.00 0
3704.50 0
3706.00 0
3707.50 0
3709.00 0
3710.50 0
3712.00 0
3713.50 0
3715.00 0
3716.50 0
3718.00 0
3719.50 0
3721.00 0
3722.50 0
3724.00 0
3725.50 0
3727.00 0
3728.50 0
3730.00 0
3731.50 0
3733.00 0
3734.50 0
3736.00 0
3737.50 0
3739.00 0
3740.50 0
3742.00 0
3743.50 0
3745.00 0
3746.50 0
3748.00 0
3749.50 0
3751.00 0
3752.50 0
3754.00 0
3755.50 0
3757.00 0
3758.50 0
3760.00 0
3761.50 0
3763.00 0
3764.50 0
3766.00 0
3767.50 0
3769.00 0
3770.50 0
3772.00 0
3773.50 0
3775.00 0
3776.50 0
3778.00 0
3779.50 0
3781.00 0
3782.50 0
3784.00 0
3785.50 0
3787.00 0
3788.50 0
3790.00 0
3791.50 0
3793.00 0
3794.50 0
3796.00 0
3797.50 0
3799.00 0
3800.50 0
3802.00 0
3803.50 0
3805.00 0
3806.50 0
3808.00 0
3809.50 0
3811.00 0
3812.50 0
3814.00 0
3815.50 0
3817.00 8.1368e-17 
3818.50 9.7109e-17 
3820.00 5.4931e-17 
3821.50 9.0582e-17 
3823.00 5.2575e-17 
3824.50 9.8877e-17 
3826.00 6.5350e-17 
3827.50 6.8405e-17 
3829.00 8.6740e-17 
3830.50 9.4956e-17 
3832.00 4.8422e-17 
3833.50 7.3521e-17 
3835.00 5.5433e-17 
3836.50 6.1757e-17 
3838.00 8.4537e-17 
3839.50 7.1749e-17 
3841.00 5.5388e-17 
3842.50 4.1660e-17 
3844.00 9.5693e-17 
3845.50 7.2330e-17 
3847.00 8.5374e-17 
3848.50 5.5693e-17 
3850.00 7.4631e-17 
3851.50 7.1789e-17 
3853.00 5.6886e-17 
3854.50 3.8327e-17 
3856.00 7.0767e-17 
3857.50 7.4203e-17 
3859.00 6.8970e-17 
3860.50 6.7478e-17 
3862.00 3.9774e-17 
3863.50 7.3763e-17 
3865.00 5.4107e-17 
3866.50 6.2415e-17 
3868.00 8.6889e-17 
3869.50 5.9699e-17 
3871.00 4.1657e-17 
3872.50 3.5819e-17 
3874.00 1.0087e-16 
3875.50 8.4487e-17 
3877.00 1.0492e-16 
3878.50 8.7437e-17 
3880.00 3.0640e-17 
3881.50 7.6675e-17 
3883.00 1.1595e-16 
3884.50 6.9915e-17 
3886.00 6.7251e-17 
3887.50 6.3127e-17 
3889.00 8.8688e-17 
3890.50 9.5365e-17 
3892.00 9.1785e-17 
3893.50 9.3542e-17 
3895.00 9.1457e-17 
3896.50 6.6870e-17 
3898.00 3.0459e-17 
3899.50 9.0891e-17 
3901.00 1.2747e-16 
3902.50 8.8424e-17 
3904.00 9.9120e-17 
3905.50 6.5086e-17 
3907.00 1.3193e-16 
3908.50 1.1276e-16 
3910.00 9.7892e-17 
3911.50 8.8557e-17 
3913.00 9.7524e-17 
3914.50 1.2099e-16 
3916.00 9.0329e-17 
3917.50 1.0855e-16 
3919.00 9.1878e-17 
3920.50 9.4546e-17 
3922.00 8.3286e-17 
3923.50 9.8384e-17 
3925.00 9.5544e-17 
3926.50 1.2182e-16 
3928.00 9.7959e-17 
3929.50 1.2353e-16 
3931.00 1.3227e-16 
3932.50 1.1854e-16 
3934.00 1.4066e-16 
3935.50 1.0403e-16 
3937.00 9.7152e-17 
3938.50 1.2478e-16 
3940.00 9.3109e-17 
3941.50 6.2268e-17 
3943.00 1.1540e-16 
3944.50 1.0622e-16 
3946.00 1.1515e-16 
3947.50 1.1697e-16 
3949.00 1.2510e-16 
3950.50 1.3162e-16 
3952.00 1.4771e-16 
3953.50 1.3145e-16 
3955.00 1.0965e-16 
3956.50 1.1841e-16 
3958.00 1.0759e-16 
3959.50 1.0034e-16 
3961.00 1.2569e-16 
3962.50 1.5617e-16 
3964.00 1.1678e-16 
3965.50 1.5397e-16 
3967.00 1.3296e-16 
3968.50 1.1183e-16 
3970.00 1.2207e-16 
3971.50 1.4362e-16 
3973.00 1.1103e-16 
3974.50 1.1048e-16 
3976.00 7.4492e-17 
3977.50 7.2932e-17 
3979.00 9.7589e-17 
3980.50 9.7350e-17 
3982.00 7.9317e-17 
3983.50 5.7759e-17 
3985.00 6.4835e-17 
3986.50 1.0372e-16 
3988.00 1.3325e-16 
3989.50 1.0384e-16 
3991.00 1.1348e-16 
3992.50 1.3189e-16 
3994.00 9.2727e-17 
3995.50 8.2617e-17 
3997.00 9.3048e-17 
3998.50 9.7273e-17 
4000.00 8.4469e-17 
4001.50 8.6844e-17 
4003.00 8.8160e-17 
4004.50 8.6783e-17 
4006.00 7.3342e-17 
4007.50 6.3185e-17 
4009.00 7.8488e-17 
4010.50 1.0626e-16 
4012.00 7.4233e-17 
4013.50 8.3927e-17 
4015.00 7.8684e-17 
4016.50 8.3194e-17 
4018.00 8.1563e-17 
4019.50 8.2999e-17 
4021.00 6.6238e-17 
4022.50 6.0715e-17 
4024.00 8.0716e-17 
4025.50 5.7144e-17 
4027.00 6.0189e-17 
4028.50 6.5474e-17 
4030.00 7.9518e-17 
4031.50 9.5657e-17 
4033.00 7.9462e-17 
4034.50 6.1180e-17 
4036.00 9.9129e-17 
4037.50 7.5462e-17 
4039.00 7.4291e-17 
4040.50 5.4016e-17 
4042.00 7.3969e-17 
4043.50 5.3811e-17 
4045.00 7.0751e-17 
4046.50 4.2522e-17 
4048.00 4.2905e-17 
4049.50 6.2523e-17 
4051.00 6.6395e-17 
4052.50 6.7147e-17 
4054.00 6.0860e-17 
4055.50 6.7271e-17 
4057.00 5.8339e-17 
4058.50 8.2055e-17 
4060.00 8.7247e-17 
4061.50 6.6349e-17 
4063.00 6.4434e-17 
4064.50 7.0038e-17 
4066.00 5.5791e-17 
4067.50 6.4927e-17 
4069.00 7.2994e-17 
4070.50 5.9176e-17 
4072.00 5.4044e-17 
4073.50 5.9049e-17 
4075.00 6.2501e-17 
4076.50 4.8140e-17 
4078.00 7.2038e-17 
4079.50 5.3744e-17 
4081.00 6.3345e-17 
4082.50 5.7113e-17 
4084.00 4.1774e-17 
4085.50 5.5292e-17 
4087.00 4.6541e-17 
4088.50 5.6927e-17 
4090.00 6.5680e-17 
4091.50 5.6726e-17 
4093.00 5.1573e-17 
4094.50 6.4396e-17 
4096.00 6.2173e-17 
4097.50 6.9417e-17 
4099.00 5.5413e-17 
4100.50 7.7882e-17 
4102.00 6.0958e-17 
4103.50 6.5232e-17 
4105.00 7.5649e-17 
4106.50 7.7666e-17 
4108.00 6.3241e-17 
4109.50 5.8254e-17 
4111.00 6.2093e-17 
4112.50 6.6881e-17 
4114.00 6.4676e-17 
4115.50 5.9132e-17 
4117.00 6.7833e-17 
4118.50 7.0298e-17 
4120.00 5.1838e-17 
4121.50 4.7405e-17 
4123.00 5.5901e-17 
4124.50 5.2640e-17 
4126.00 6.0050e-17 
4127.50 5.0658e-17 
4129.00 7.2300e-17 
4130.50 5.6896e-17 
4132.00 5.7604e-17 
4133.50 8.3948e-17 
4135.00 6.2072e-17 
4136.50 6.0903e-17 
4138.00 6.4791e-17 
4139.50 6.9639e-17 
4141.00 5.3834e-17 
4142.50 6.5592e-17 
4144.00 6.2666e-17 
4145.50 5.2236e-17 
4147.00 4.9795e-17 
4148.50 6.0051e-17 
4150.00 6.6123e-17 
4151.50 5.6247e-17 
4153.00 4.0448e-17 
4154.50 5.3484e-17 
4156.00 6.5932e-17 
4157.50 6.3257e-17 
4159.00 4.4730e-17 
4160.50 5.1781e-17 
4162.00 7.2005e-17 
4163.50 6.0486e-17 
4165.00 7.1544e-17 
4166.50 5.7070e-17 
4168.00 6.9109e-17 
4169.50 5.4167e-17 
4171.00 6.9140e-17 
4172.50 5.9359e-17 
4174.00 4.6783e-17 
4175.50 7.2230e-17 
4177.00 6.5930e-17 
4178.50 6.4938e-17 
4180.00 6.5392e-17 
4181.50 5.1454e-17 
4183.00 5.9410e-17 
4184.50 7.0415e-17 
4186.00 7.8822e-17 
4187.50 6.2197e-17 
4189.00 7.4932e-17 
4190.50 6.2873e-17 
4192.00 5.5089e-17 
4193.50 5.1121e-17 
4195.00 5.5519e-17 
4196.50 7.1243e-17 
4198.00 8.0142e-17 
4199.50 6.5227e-17 
4201.00 5.8215e-17 
4202.50 5.0398e-17 
4204.00 5.6016e-17 
4205.50 5.7942e-17 
4207.00 5.5130e-17 
4208.50 5.0229e-17 
4210.00 5.9657e-17 
4211.50 6.7614e-17 
4213.00 6.4021e-17 
4214.50 7.9727e-17 
4216.00 6.8537e-17 
4217.50 4.6267e-17 
4219.00 6.8493e-17 
4220.50 5.8438e-17 
4222.00 6.0231e-17 
4223.50 7.5965e-17 
4225.00 6.0808e-17 
4226.50 6.8336e-17 
4228.00 6.4526e-17 
4229.50 6.2735e-17 
4231.00 5.0161e-17 
4232.50 6.2212e-17 
4234.00 6.4154e-17 
4235.50 5.4294e-17 
4237.00 7.2876e-17 
4238.50 5.4313e-17 
4240.00 6.5021e-17 
4241.50 7.0218e-17 
4243.00 5.5706e-17 
4244.50 5.4517e-17 
4246.00 5.4898e-17 
4247.50 5.2411e-17 
4249.00 6.7431e-17 
4250.50 5.3817e-17 
4252.00 5.6237e-17 
4253.50 5.2983e-17 
4255.00 6.2648e-17 
4256.50 5.4632e-17 
4258.00 6.5355e-17 
4259.50 7.0591e-17 
4261.00 5.7937e-17 
4262.50 7.1762e-17 
4264.00 8.5755e-17 
4265.50 7.0057e-17 
4267.00 4.4951e-17 
4268.50 4.4268e-17 
4270.00 5.3968e-17 
4271.50 7.0235e-17 
4273.00 5.0218e-17 
4274.50 5.8330e-17 
4276.00 4.6661e-17 
4277.50 4.8545e-17 
4279.00 7.4131e-17 
4280.50 6.4132e-17 
4282.00 4.4820e-17 
4283.50 6.6554e-17 
4285.00 6.2440e-17 
4286.50 5.8370e-17 
4288.00 6.5551e-17 
4289.50 5.2955e-17 
4291.00 5.2369e-17 
4292.50 5.9097e-17 
4294.00 5.7797e-17 
4295.50 4.1043e-17 
4297.00 4.9624e-17 
4298.50 5.6174e-17 
4300.00 6.2612e-17 
4301.50 7.9622e-17 
4303.00 5.3403e-17 
4304.50 5.6418e-17 
4306.00 5.9203e-17 
4307.50 4.4839e-17 
4309.00 5.6976e-17 
4310.50 5.8473e-17 
4312.00 5.2032e-17 
4313.50 6.3334e-17 
4315.00 7.1860e-17 
4316.50 5.4442e-17 
4318.00 4.9760e-17 
4319.50 5.3809e-17 
4321.00 4.8437e-17 
4322.50 5.1904e-17 
4324.00 4.9210e-17 
4325.50 4.7352e-17 
4327.00 6.3065e-17 
4328.50 4.7999e-17 
4330.00 5.2927e-17 
4331.50 4.7200e-17 
4333.00 5.4647e-17 
4334.50 6.0972e-17 
4336.00 6.7000e-17 
4337.50 5.4478e-17 
4339.00 6.4793e-17 
4340.50 6.1282e-17 
4342.00 5.1651e-17 
4343.50 5.2861e-17 
4345.00 5.7747e-17 
4346.50 5.7880e-17 
4348.00 5.0543e-17 
4349.50 5.4680e-17 
4351.00 5.0392e-17 
4352.50 5.4490e-17 
4354.00 6.4703e-17 
4355.50 4.9653e-17 
4357.00 4.5272e-17 
4358.50 6.2289e-17 
4360.00 5.4385e-17 
4361.50 6.9092e-17 
4363.00 5.1982e-17 
4364.50 6.7560e-17 
4366.00 5.8378e-17 
4367.50 5.6807e-17 
4369.00 4.3805e-17 
4370.50 4.2013e-17 
4372.00 5.7981e-17 
4373.50 7.8103e-17 
4375.00 5.6407e-17 
4376.50 5.4521e-17 
4378.00 6.4228e-17 
4379.50 4.9892e-17 
4381.00 7.3835e-17 
4382.50 6.5077e-17 
4384.00 5.0259e-17 
4385.50 6.2500e-17 
4387.00 5.2793e-17 
4388.50 7.2146e-17 
4390.00 5.2508e-17 
4391.50 7.2177e-17 
4393.00 5.4039e-17 
4394.50 6.3774e-17 
4396.00 4.4164e-17 
4397.50 5.9935e-17 
4399.00 4.9253e-17 
4400.50 5.2443e-17 
4402.00 4.7953e-17 
4403.50 4.7459e-17 
4405.00 5.3578e-17 
4406.50 4.1801e-17 
4408.00 5.3987e-17 
4409.50 3.9302e-17 
4411.00 4.6599e-17 
4412.50 5.5973e-17 
4414.00 6.1345e-17 
4415.50 5.4167e-17 
4417.00 6.2578e-17 
4418.50 6.7862e-17 
4420.00 4.0748e-17 
4421.50 5.8957e-17 
4423.00 7.8921e-17 
4424.50 4.7809e-17 
4426.00 5.0070e-17 
4427.50 6.3858e-17 
4429.00 5.4232e-17 
4430.50 5.3134e-17 
4432.00 4.8503e-17 
4433.50 6.2639e-17 
4435.00 5.6745e-17 
4436.50 5.3093e-17 
4438.00 5.5624e-17 
4439.50 4.8266e-17 
4441.00 4.2837e-17 
4442.50 5.1775e-17 
4444.00 6.0153e-17 
4445.50 5.4224e-17 
4447.00 6.8627e-17 
4448.50 5.4314e-17 
4450.00 5.3900e-17 
4451.50 6.8338e-17 
4453.00 6.4212e-17 
4454.50 5.8393e-17 
4456.00 6.0744e-17 
4457.50 6.0795e-17 
4459.00 5.7918e-17 
4460.50 6.0887e-17 
4462.00 4.8495e-17 
4463.50 4.3143e-17 
4465.00 6.1639e-17 
4466.50 5.0417e-17 
4468.00 4.4749e-17 
4469.50 3.7999e-17 
4471.00 4.9563e-17 
4472.50 5.7199e-17 
4474.00 5.4390e-17 
4475.50 6.9289e-17 
4477.00 7.5122e-17 
4478.50 5.8184e-17 
4480.00 6.6307e-17 
4481.50 5.5375e-17 
4483.00 5.3772e-17 
4484.50 5.4055e-17 
4486.00 5.3170e-17 
4487.50 5.1883e-17 
4489.00 5.3307e-17 
4490.50 4.5488e-17 
4492.00 5.8737e-17 
4493.50 4.6550e-17 
4495.00 5.2227e-17 
4496.50 6.1405e-17 
4498.00 4.9196e-17 
4499.50 4.0760e-17 
4501.00 5.5095e-17 
4502.50 5.7875e-17 
4504.00 5.1312e-17 
4505.50 5.8077e-17 
4507.00 5.8686e-17 
4508.50 5.1042e-17 
4510.00 5.8686e-17 
4511.50 4.4461e-17 
4513.00 4.7171e-17 
4514.50 4.8788e-17 
4516.00 5.6665e-17 
4517.50 5.4736e-17 
4519.00 5.1377e-17 
4520.50 4.3931e-17 
4522.00 5.9755e-17 
4523.50 5.0341e-17 
4525.00 6.3926e-17 
4526.50 6.1304e-17 
4528.00 6.1886e-17 
4529.50 5.8606e-17 
4531.00 4.0191e-17 
4532.50 5.2552e-17 
4534.00 5.8947e-17 
4535.50 5.3806e-17 
4537.00 4.1866e-17 
4538.50 5.0857e-17 
4540.00 5.1718e-17 
4541.50 5.9692e-17 
4543.00 6.8749e-17 
4544.50 4.0293e-17 
4546.00 5.7478e-17 
4547.50 4.8990e-17 
4549.00 5.9582e-17 
4550.50 5.2541e-17 
4552.00 5.1788e-17 
4553.50 5.4812e-17 
4555.00 5.8931e-17 
4556.50 5.1008e-17 
4558.00 4.7052e-17 
4559.50 6.7965e-17 
4561.00 6.5403e-17 
4562.50 6.5498e-17 
4564.00 5.5123e-17 
4565.50 4.8499e-17 
4567.00 3.9915e-17 
4568.50 5.0330e-17 
4570.00 5.4797e-17 
4571.50 5.1250e-17 
4573.00 4.6756e-17 
4574.50 4.3093e-17 
4576.00 5.5560e-17 
4577.50 5.6078e-17 
4579.00 4.6667e-17 
4580.50 4.7044e-17 
4582.00 5.8876e-17 
4583.50 6.8999e-17 
4585.00 5.7069e-17 
4586.50 4.5358e-17 
4588.00 4.2573e-17 
4589.50 5.4197e-17 
4591.00 6.5488e-17 
4592.50 3.7099e-17 
4594.00 5.5698e-17 
4595.50 4.8608e-17 
4597.00 5.4575e-17 
4598.50 5.0805e-17 
4600.00 5.0022e-17 
4601.50 4.4541e-17 
4603.00 3.9881e-17 
4604.50 6.1012e-17 
4606.00 4.9126e-17 
4607.50 5.0016e-17 
4609.00 5.3887e-17 
4610.50 4.6919e-17 
4612.00 5.7730e-17 
4613.50 5.1231e-17 
4615.00 5.1883e-17 
4616.50 4.7564e-17 
4618.00 5.0893e-17 
4619.50 7.0897e-17 
4621.00 5.6363e-17 
4622.50 6.0374e-17 
4624.00 5.1347e-17 
4625.50 4.3258e-17 
4627.00 4.9623e-17 
4628.50 6.1393e-17 
4630.00 5.2182e-17 
4631.50 6.4536e-17 
4633.00 5.3605e-17 
4634.50 5.3790e-17 
4636.00 6.5495e-17 
4637.50 6.6501e-17 
4639.00 5.3411e-17 
4640.50 5.9935e-17 
4642.00 6.5533e-17 
4643.50 6.2817e-17 
4645.00 5.1988e-17 
4646.50 5.5795e-17 
4648.00 5.5860e-17 
4649.50 4.4182e-17 
4651.00 5.5831e-17 
4652.50 5.4031e-17 
4654.00 4.7581e-17 
4655.50 4.6132e-17 
4657.00 5.0620e-17 
4658.50 5.4352e-17 
4660.00 4.7542e-17 
4661.50 5.9497e-17 
4663.00 5.1851e-17 
4664.50 5.8339e-17 
4666.00 5.7900e-17 
4667.50 4.3774e-17 
4669.00 4.5643e-17 
4670.50 5.0051e-17 
4672.00 5.0908e-17 
4673.50 4.9660e-17 
4675.00 5.0027e-17 
4676.50 4.6716e-17 
4678.00 5.4517e-17 
4679.50 4.6004e-17 
4681.00 4.5620e-17 
4682.50 5.6171e-17 
4684.00 5.9937e-17 
4685.50 5.0121e-17 
4687.00 4.3269e-17 
4688.50 6.2423e-17 
4690.00 5.0529e-17 
4691.50 5.0864e-17 
4693.00 4.0354e-17 
4694.50 5.3333e-17 
4696.00 4.7738e-17 
4697.50 5.4643e-17 
4699.00 5.3755e-17 
4700.50 5.6442e-17 
4702.00 4.8906e-17 
4703.50 5.3960e-17 
4705.00 5.1522e-17 
4706.50 4.0291e-17 
4708.00 5.5216e-17 
4709.50 5.6041e-17 
4711.00 5.8290e-17 
4712.50 5.8782e-17 
4714.00 4.7423e-17 
4715.50 6.0014e-17 
4717.00 6.9847e-17 
4718.50 4.8760e-17 
4720.00 5.5865e-17 
4721.50 5.3952e-17 
4723.00 4.1196e-17 
4724.50 5.1747e-17 
4726.00 4.3706e-17 
4727.50 5.6816e-17 
4729.00 4.9440e-17 
4730.50 4.2382e-17 
4732.00 4.3440e-17 
4733.50 5.4515e-17 
4735.00 6.6391e-17 
4736.50 7.3800e-17 
4738.00 5.5923e-17 
4739.50 5.2105e-17 
4741.00 6.0856e-17 
4742.50 5.2309e-17 
4744.00 5.0343e-17 
4745.50 5.0530e-17 
4747.00 5.2744e-17 
4748.50 5.5301e-17 
4750.00 7.8822e-17 
4751.50 5.7267e-17 
4753.00 6.1654e-17 
4754.50 6.7086e-17 
4756.00 5.8983e-17 
4757.50 6.9629e-17 
4759.00 5.7629e-17 
4760.50 6.1173e-17 
4762.00 6.5909e-17 
4763.50 5.1681e-17 
4765.00 6.2854e-17 
4766.50 5.6419e-17 
4768.00 6.1518e-17 
4769.50 6.4022e-17 
4771.00 5.9870e-17 
4772.50 5.7273e-17 
4774.00 6.6636e-17 
4775.50 6.6024e-17 
4777.00 6.2156e-17 
4778.50 6.7057e-17 
4780.00 5.5541e-17 
4781.50 5.4461e-17 
4783.00 5.6181e-17 
4784.50 5.6524e-17 
4786.00 6.4684e-17 
4787.50 5.0156e-17 
4789.00 6.0438e-17 
4790.50 6.3861e-17 
4792.00 6.7817e-17 
4793.50 6.5504e-17 
4795.00 5.9676e-17 
4796.50 5.6627e-17 
4798.00 4.7733e-17 
4799.50 3.4150e-17 
4801.00 4.1540e-17 
4802.50 4.9908e-17 
4804.00 5.7294e-17 
4805.50 5.6124e-17 
4807.00 6.9177e-17 
4808.50 7.0559e-17 
4810.00 6.2420e-17 
4811.50 6.6384e-17 
4813.00 6.0266e-17 
4814.50 6.4800e-17 
4816.00 6.8060e-17 
4817.50 5.5886e-17 
4819.00 6.6936e-17 
4820.50 6.2412e-17 
4822.00 6.0048e-17 
4823.50 5.4728e-17 
4825.00 5.6723e-17 
4826.50 6.1967e-17 
4828.00 6.3999e-17 
4829.50 6.7576e-17 
4831.00 6.6476e-17 
4832.50 6.3937e-17 
4834.00 6.1003e-17 
4835.50 7.3816e-17 
4837.00 7.5390e-17 
4838.50 7.9887e-17 
4840.00 6.9101e-17 
4841.50 6.8121e-17 
4843.00 6.7901e-17 
4844.50 7.5467e-17 
4846.00 7.2252e-17 
4847.50 6.9930e-17 
4849.00 6.3957e-17 
4850.50 7.7693e-17 
4852.00 6.0873e-17 
4853.50 6.2847e-17 
4855.00 8.2427e-17 
4856.50 5.9032e-17 
4858.00 6.8318e-17 
4859.50 7.3209e-17 
4861.00 6.0545e-17 
4862.50 6.5094e-17 
4864.00 8.7544e-17 
4865.50 7.0001e-17 
4867.00 7.5812e-17 
4868.50 7.2317e-17 
4870.00 6.6282e-17 
4871.50 7.3251e-17 
4873.00 6.6257e-17 
4874.50 5.8693e-17 
4876.00 7.3258e-17 
4877.50 7.2452e-17 
4879.00 6.7091e-17 
4880.50 7.7736e-17 
4882.00 7.8386e-17 
4883.50 7.1962e-17 
4885.00 7.8192e-17 
4886.50 7.2180e-17 
4888.00 7.6694e-17 
4889.50 7.4572e-17 
4891.00 6.2923e-17 
4892.50 5.8376e-17 
4894.00 6.7309e-17 
4895.50 5.6482e-17 
4897.00 6.7484e-17 
4898.50 6.4927e-17 
4900.00 6.5523e-17 
4901.50 6.9728e-17 
4903.00 6.8144e-17 
4904.50 6.7399e-17 
4906.00 6.2477e-17 
4907.50 7.0187e-17 
4909.00 7.4017e-17 
4910.50 5.9186e-17 
4912.00 6.7177e-17 
4913.50 6.6919e-17 
4915.00 5.7429e-17 
4916.50 6.0270e-17 
4918.00 6.6284e-17 
4919.50 6.3708e-17 
4921.00 6.8705e-17 
4922.50 6.7380e-17 
4924.00 7.1000e-17 
4925.50 6.1995e-17 
4927.00 5.7209e-17 
4928.50 6.3350e-17 
4930.00 6.2506e-17 
4931.50 6.4223e-17 
4933.00 5.4425e-17 
4934.50 4.6940e-17 
4936.00 5.0903e-17 
4937.50 5.3900e-17 
4939.00 6.2209e-17 
4940.50 5.8561e-17 
4942.00 6.0180e-17 
4943.50 5.9953e-17 
4945.00 6.2254e-17 
4946.50 5.8872e-17 
4948.00 6.4964e-17 
4949.50 5.6311e-17 
4951.00 4.7540e-17 
4952.50 6.0494e-17 
4954.00 6.1097e-17 
4955.50 5.3539e-17 
4957.00 4.8001e-17 
4958.50 5.1227e-17 
4960.00 4.3645e-17 
4961.50 6.1513e-17 
4963.00 4.9871e-17 
4964.50 4.8396e-17 
4966.00 5.1372e-17 
4967.50 6.0579e-17 
4969.00 6.5274e-17 
4970.50 5.4672e-17 
4972.00 6.0111e-17 
4973.50 4.9409e-17 
4975.00 5.5044e-17 
4976.50 5.2482e-17 
4978.00 5.0632e-17 
4979.50 5.6488e-17 
4981.00 4.0915e-17 
4982.50 4.6800e-17 
4984.00 4.3568e-17 
4985.50 5.3635e-17 
4987.00 6.8324e-17 
4988.50 5.1302e-17 
4990.00 4.5095e-17 
4991.50 4.4449e-17 
4993.00 5.1904e-17 
4994.50 5.4355e-17 
4996.00 4.6262e-17 
4997.50 5.4612e-17 
4999.00 5.2859e-17 
5000.50 5.8743e-17 
5002.00 5.1970e-17 
5003.50 4.4904e-17 
5005.00 5.2034e-17 
5006.50 4.8515e-17 
5008.00 4.7436e-17 
5009.50 4.3897e-17 
5011.00 4.8358e-17 
5012.50 4.8855e-17 
5014.00 3.8706e-17 
5015.50 5.4435e-17 
5017.00 4.5328e-17 
5018.50 5.0736e-17 
5020.00 4.8347e-17 
5021.50 5.4015e-17 
5023.00 5.3958e-17 
5024.50 5.3217e-17 
5026.00 4.9482e-17 
5027.50 4.3098e-17 
5029.00 4.5430e-17 
5030.50 3.8635e-17 
5032.00 4.8277e-17 
5033.50 5.4644e-17 
5035.00 3.9264e-17 
5036.50 5.1040e-17 
5038.00 5.3027e-17 
5039.50 4.9532e-17 
5041.00 4.2639e-17 
5042.50 4.3979e-17 
5044.00 4.6297e-17 
5045.50 5.0034e-17 
5047.00 4.4485e-17 
5048.50 5.4643e-17 
5050.00 5.2943e-17 
5051.50 4.4088e-17 
5053.00 4.9938e-17 
5054.50 5.1196e-17 
5056.00 4.4881e-17 
5057.50 4.2525e-17 
5059.00 4.3594e-17 
5060.50 3.0625e-17 
5062.00 3.8375e-17 
5063.50 3.8204e-17 
5065.00 4.1853e-17 
5066.50 4.6684e-17 
5068.00 4.6097e-17 
5069.50 4.7998e-17 
5071.00 4.5550e-17 
5072.50 4.5766e-17 
5074.00 4.2143e-17 
5075.50 4.9002e-17 
5077.00 4.1876e-17 
5078.50 4.6453e-17 
5080.00 4.8391e-17 
5081.50 3.9563e-17 
5083.00 4.4379e-17 
5084.50 3.7754e-17 
5086.00 4.9421e-17 
5087.50 5.7580e-17 
5089.00 4.8161e-17 
5090.50 5.0845e-17 
5092.00 4.7342e-17 
5093.50 4.2833e-17 
5095.00 5.0986e-17 
5096.50 5.0253e-17 
5098.00 4.3997e-17 
5099.50 4.9662e-17 
5101.00 5.1318e-17 
5102.50 4.9953e-17 
